time,AF3,AF4,AF7,AF8,AFz,C1,C2,C3,C4,C5,C6,CP1,CP2,CP3,CP4,CP5,CP6,CPz,Cz,F1,F2,F3,F4,F5,F6,F7,F8,FC1,FC2,FC3,FC4,FC5,FC6,FCz,FT7,FT8,Fp1,Fp2,Fpz,Fz,O1,O2,Oz,P1,P2,P3,P4,P5,P6,P7,P8,PO3,PO4,PO7,PO8,POz,Pz,T7,T8,TP7,TP8
0.0,0.6275517970401692,0.6568816067653277,0.6595623678646935,0.9187758985200846,0.5477124735729386,0.6288646934460888,0.6567420718816068,0.018871035940803388,0.056014799154334056,0.15442494714587734,0.2773361522198732,0.09979069767441859,0.051644820295983086,0.17560465116279073,0.1329661733615222,0.38571881606765324,0.3682854122621564,0.04527906976744185,1.0942515856236787,0.40781395348837207,0.472183932346723,0.45774418604651157,0.5820930232558139,0.43123044397463006,0.6712536997885835,0.6745348837209303,0.7648583509513742,0.08678646934460887,0.12472304439746301,0.15327906976744188,0.2517103594080338,0.26301902748414374,0.3056955602536998,-0.031101479915433394,0.568031712473573,0.5730274841437633,0.7362114164904863,0.8018435517970401,0.5788731501057083,0.3238160676532769,0.5734524312896406,0.48413107822410145,0.4694101479915433,0.1917547568710359,0.14936786469344604,0.3636427061310782,0.3628097251585624,0.4488372093023256,0.4907336152219873,0.618105708245243,0.5398372093023256,0.46151797040169135,0.328369978858351,1.331598308668076,1.5455517970401693,0.2250972515856237,0.11952431289640592,0.3973192389006343,0.3669408033826639,0.570784355179704,0.48379915433403803
0.00390625,0.4861479915433404,0.5681353065539112,0.663693446088795,0.7866236786469344,0.42900845665961945,-0.012179704016913316,-0.05245031712473573,-0.019329809725158555,0.16026215644820296,0.0780507399577167,0.2154059196617336,0.11730443974630021,0.0526849894291755,0.18492389006342497,0.1525581395348837,0.5126744186046511,0.5159133192389006,0.060767441860465114,0.9776046511627906,0.24984143763213534,0.35552431289640596,0.2729344608879493,0.5139281183932347,0.26396828752642704,0.6144503171247357,0.641507399577167,0.7607103594080339,-0.0061226215644820245,0.06072938689217759,0.009824524312896403,0.1071860465116279,0.13397040169133193,0.20762367864693443,-0.07239746300211417,0.3853023255813953,0.17248202959830863,0.6164799154334039,0.7120000000000001,0.3858350951374207,0.21543763213530653,0.5899894291754757,0.574983086680761,0.4993467230443975,0.21448202959830864,0.19684989429175476,0.376014799154334,0.36898520084566594,0.5169830866807611,0.5433572938689218,0.7213150105708246,0.5109302325581395,0.47699365750528544,0.45121353065539116,1.0611289640591965,0.8219302325581396,0.2756638477801268,0.18867441860465115,0.4210697674418605,0.32872304439746297,0.5718181818181819,0.44459196617336144
0.0078125,0.34573150105708245,0.4174016913319239,0.6110274841437633,0.5925771670190274,0.2617780126849894,-0.017380549682875272,-0.12782452431289643,-0.06369767441860466,0.10761733615221988,0.019200845665961933,0.11525369978858348,0.13898520084566596,0.06611205073995771,0.22106553911205074,0.14430443974630022,0.5353784355179704,0.4931923890063425,0.09996828752642707,0.8083192389006342,0.05475052854122624,0.20376955602536997,0.08402536997885832,0.39523467230443976,0.14423467230443973,0.47613742071881604,0.5702558139534883,0.6378794926004228,-0.1145031712473573,-0.0053572938689217765,-0.14816701902748414,-0.07452431289640592,0.014215644820295961,0.10853911205073992,-0.13329386892177592,0.21807188160676536,-0.05463424947145876,0.455399577167019,0.5953953488372092,0.3455877378435518,0.06782663847780125,0.6642748414376322,0.6843636363636364,0.5767632135306554,0.27953276955602535,0.34756025369978855,0.4513657505285412,0.4423044397463002,0.6315454545454545,0.6032135306553911,0.8637928118393234,0.5522219873150106,0.5595961945031712,0.6081057082452431,1.1788160676532768,1.0583255813953487,0.4047124735729387,0.3559196617336152,0.4035433403805497,0.24199788583509518,0.5872896405919662,0.4652093023255814
0.01171875,0.22082875264270616,0.267708245243129,0.5150338266384777,0.4459830866807611,0.11003171247357292,-0.02871881606765328,-0.146384778012685,-0.12154545454545454,0.1251797040169133,-0.021052854122621575,0.09462790697674418,0.21746511627906978,0.09707822410147991,0.27678858350951374,0.12984989429175475,0.4104672304439746,0.5055602536997885,0.17947145877378434,0.666892177589852,-0.05364904862579281,0.027266384778012694,-0.06564904862579281,0.23110359408033823,0.0399788583509514,0.32849894291754755,0.43502325581395346,0.5325877378435517,-0.20534249471458776,-0.1034418604651163,-0.29682241014799154,-0.15605708245243127,-0.0807568710359408,0.04349682875264272,-0.20349682875264272,0.11075052854122622,0.02796617336152217,0.3625179704016913,0.4714862579281184,0.381723044397463,-0.053995771670190276,0.8098435517970402,0.8124207188160676,0.7264587737843552,0.4364249471458774,0.5096596194503171,0.6083023255813954,0.5465412262156448,0.7575179704016913,0.693046511627907,1.0031395348837209,0.6492642706131078,0.737154334038055,0.7681395348837209,1.1024355179704017,1.1285158562367865,0.559568710359408,0.4973340380549683,0.3147293868921776,0.16049048625792814,0.5873192389006343,0.4579936575052855
0.015625,0.17954545454545456,0.19855813953488372,0.38702536997885834,0.42328118393234676,0.03362579281183934,0.3418752642706131,0.2469260042283298,-0.0967737843551797,0.07768498942917548,-0.04789640591966175,0.10286680761099368,0.27834460887949264,0.13423890063424948,0.3366427061310782,0.123661733615222,0.48170401691331927,0.4435983086680761,0.23831501057082455,0.5192832980972516,-0.10420930232558138,-0.027454545454545454,-0.11932346723044397,0.12061310782241015,0.0038329809725158688,0.2314735729386892,0.26469767441860464,0.4531247357293869,-0.281723044397463,-0.15709725158562368,-0.3628773784355179,-0.13230655391120508,-0.14782241014799155,0.03316913319238897,-0.2261923890063425,0.0993572938689218,0.2860486257928119,0.35010782241014804,0.397169133192389,0.4725496828752643,-0.11487103594080338,0.9791501057082452,0.9197716701902747,0.893676532769556,0.6005750528541226,0.676877378435518,0.7806892177589853,0.6642135306553911,0.914431289640592,0.7859302325581395,1.0795306553911206,0.7524693446088795,0.9023213530655391,0.8600042283298097,1.8199006342494715,1.5248816067653277,0.7174862579281185,0.5799302325581396,0.1888012684989429,0.11190697674418605,0.6131183932346723,0.44458350951374204
0.01953125,0.2332114164904863,0.205784355179704,0.3178646934460888,0.5079408033826639,0.09663002114164906,0.056974630021141635,-0.15464904862579282,0.020942917547568683,-0.08336786469344609,-0.03858350951374207,0.1163171247357294,0.31550739957716706,0.15075264270613106,0.4161458773784355,0.15360887949260044,0.5890486257928118,0.36104016913319237,0.2785433403805497,0.45629809725158565,-0.03301479915433406,0.024147991543340373,-0.03567441860465118,0.07419027484143763,0.06580549682875264,0.2655454545454546,0.1026448202959831,0.4706427061310782,-0.25385623678646935,-0.19320295983086683,-0.3319281183932347,-0.0796490486257928,-0.1715898520084567,0.05895137420718815,-0.208661733615222,0.1303192389006343,0.4336553911205074,0.43786892177589853,0.4250359408033827,0.5024862579281184,-0.09632769556025372,1.098894291754757,0.9816955602536998,1.0031268498942918,0.6841881606765328,0.7553128964059196,0.8931902748414376,0.729247357293869,1.0187019027484143,0.865446088794926,1.0991479915433404,0.8288879492600423,1.009678646934461,0.8868668076109937,1.3532980972515856,1.004598308668076,0.7742748414376321,0.594367864693446,0.10001268498942915,0.20381606765327695,0.615154334038055,0.441477801268499
0.0234375,0.3405708245243129,0.31208033826638476,0.3705179704016913,0.6193868921775899,0.21738689217758989,0.023913319238900627,-0.021494714587737853,0.06741437632135305,-0.1174397463002114,0.02541226215644818,0.08637209302325581,0.34338477801268497,0.16109936575052855,0.4677716701902748,0.19284566596194505,0.6189809725158563,0.3094059196617336,0.2620443974630021,0.4676490486257928,0.08986469344608879,0.12633826638477802,0.09850739957716702,0.14851374207188164,0.14735095137420723,0.35846723044397466,0.03243974630021144,0.5263805496828753,-0.18159408033826638,-0.14575052854122622,-0.23380972515856235,-0.07139112050739958,-0.1313044397463002,0.09614376321353066,-0.16220084566596196,0.17571881606765333,0.3706828752642706,0.5978752642706131,0.5034672304439746,0.49217336152219876,-0.007534883720930222,1.106120507399577,0.9785877378435517,1.039232558139535,0.7151564482029599,0.7398498942917547,0.9623868921775899,0.7860295983086681,1.1074418604651162,0.9129344608879493,1.1249640591966172,0.8681120507399578,1.0468393234672304,0.8868245243128964,1.40284778012685,1.0830718816067653,0.7701310782241014,0.585093023255814,0.08250739957716702,0.3617463002114164,0.6461331923890063,0.5230507399577167
0.02734375,0.4562325581395349,0.44421775898520094,0.43450528541226213,0.5977272727272728,0.32990063424947147,-0.13195137420718817,-0.014268498942917549,0.06223678646934459,-0.10401268498942917,0.11007399577167022,0.016175475687103598,0.3598985200845666,0.1579873150105708,0.5286659619450317,0.20933615221987315,0.6334270613107822,0.3496871035940804,0.24760676532769554,0.5719217758985201,0.23126638477801267,0.20686892177589852,0.2389217758985201,0.24451374207188162,0.2629577167019028,0.4224397463002114,0.11915644820295984,0.5624989429175474,-0.10416490486257927,-0.12301902748414377,-0.09651797040169134,-0.12198942917547569,-0.041492600422832995,0.12191543340380546,-0.13743340380549682,0.24798942917547573,0.26949682875264264,0.690786469344609,0.5819260042283297,0.4859830866807612,0.10913107822410145,1.0565877378435518,0.9208181818181819,1.042355179704017,0.7161860465116279,0.7130042283298097,1.0108604651162791,0.7468054968287527,1.174551797040169,0.8871120507399577,1.1652156448202962,0.9042452431289641,1.0375433403805499,0.9260549682875264,1.1003657505285411,0.8879957716701903,0.7587970401691332,0.5695940803382664,0.18779281183932348,0.5134862579281184,0.6698794926004229,0.6355560253699788
0.03125,0.5088520084566597,0.49999365750528546,0.5140169133192389,0.4955243128964059,0.36395560253699794,0.03941437632135305,0.07761733615221986,0.14792177589852007,-0.13191120507399579,0.19056871035940806,-0.055078224101479945,0.38674841437632135,0.17452642706131077,0.6050591966173361,0.22173150105708242,0.7418414376321354,0.3558816067653277,0.22386469344608878,0.6565940803382663,0.2767188160676533,0.21513953488372092,0.302906976744186,0.2899450317124736,0.28154545454545454,0.38633403805496824,0.3111458773784355,0.5253509513742072,-0.06185200845665962,-0.08069556025369978,-0.024266384778012712,-0.1767019027484144,0.07515856236786471,0.1271014799154334,-0.09199154334038055,0.28724524312896405,0.26433403805496825,0.6783932346723044,0.5994862579281183,0.44573572938689215,0.16280338266384778,1.0647928118393235,0.8784418604651163,0.9917610993657505,0.741985200845666,0.6789238900634249,1.063524312896406,0.7220591966173361,1.2498985200845667,0.8323974630021141,1.2054587737843552,0.9207420718816068,1.0489006342494716,0.9374355179704017,1.3863107822410148,1.117154334038055,0.7567272727272728,0.6274312896405919,0.3601649048625793,0.5764883720930233,0.7142579281183932,0.7356680761099366
0.03515625,0.484076109936575,0.4370274841437632,0.49130021141649044,0.33859830866807605,0.31029175475687104,-0.01943763213530655,-0.04419027484143764,0.1541014799154334,-0.2206279069767442,0.2091627906976744,-0.0777505285412262,0.38365327695560253,0.17037209302325582,0.6184714587737843,0.19798731501057082,0.7377145877378435,0.2660739957716702,0.21559196617336152,0.6462431289640592,0.23647145877378437,0.18621775898520088,0.26365116279069767,0.25687737843551794,0.23404439746300212,0.2779302325581395,0.47735940803382665,0.38288160676532773,-0.05256236786469347,-0.10340803382663846,-0.029439746300211418,-0.1477906976744186,0.15770824524312893,0.08685835095137424,-0.09097885835095136,0.30995137420718816,0.24993868921775902,0.5441945031712474,0.5117441860465116,0.3693424947145877,0.1483446088794926,1.0658520084566596,0.8227336152219874,0.9628604651162791,0.7667801268498943,0.6665644820295983,1.0749048625792812,0.6755961945031713,1.2684651162790699,0.782877378435518,1.2075517970401692,0.86192177589852,1.0561289640591967,0.9064862579281183,1.1757124735729385,0.809490486257928,0.7422959830866808,0.6232748414376321,0.5046997885835095,0.4701564482029599,0.7246067653276956,0.7553150105708245
0.0390625,0.3932241014799154,0.3430866807610994,0.40973361522198726,0.25914799154334034,0.21120507399577165,-0.13608668076109937,0.030120507399577168,0.14890697674418604,-0.20002536997885834,0.17094926004228328,-0.057154334038054984,0.36404439746300216,0.15385623678646934,0.6019661733615222,0.1484397463002114,0.6912579281183933,0.20621564482029597,0.20218181818181816,0.42326638477801265,0.17143340380549682,0.1480232558139535,0.14806131078224102,0.16191331923890065,0.13083509513742073,0.1808710359408034,0.4835623678646934,0.25594714587737843,-0.0948985200845666,-0.12404651162790696,-0.06556659619450315,-0.08996828752642708,0.11746723044397463,-0.01637632135306556,-0.08788794926004227,0.2438985200845666,0.13943128964059195,0.372845665961945,0.38787103594080335,0.2692029598308668,0.08124312896405919,1.0751416490486259,0.7308583509513742,0.8596363636363636,0.7554016913319239,0.639708245243129,1.0934651162790696,0.6157251585623679,1.2499112050739958,0.6868583509513743,1.1311585623678646,0.7080993657505285,1.0457906976744187,0.8063171247357294,1.0673340380549683,0.7775348837209303,0.6875644820295983,0.5850930232558139,0.47886680761099365,0.21826849894291758,0.684338266384778,0.6262494714587739
0.04296875,0.3033953488372093,0.2759788583509514,0.2992748414376321,0.31279069767441864,0.15029386892177593,-0.035940803382663845,-0.07311627906976745,0.0808033826638478,-0.0833720930232558,0.08424524312896407,-0.01583298097251584,0.34341649048625794,0.12599788583509514,0.5389809725158562,0.12367441860465116,0.5746173361522199,0.24131289640591963,0.1960042283298097,0.13628752642706135,0.08160676532769555,0.10983509513742074,0.06754545454545455,0.12684355179704018,0.06476109936575052,0.143723044397463,0.3627716701902748,0.2104904862579281,-0.11865961945031714,-0.15400211416490486,-0.12232558139534881,-0.07862367864693445,0.023541226215644806,-0.10620718816067652,-0.08787526427061308,0.10759619450317125,-0.05771247357293869,0.23761522198731502,0.2928964059196617,0.21863424947145876,0.018264270613107834,0.9874038054968288,0.5719154334038056,0.7295687103594081,0.7347505285412261,0.6520951374207188,1.0418710359408034,0.5579027484143763,1.170416490486258,0.5980866807610995,0.9649365750528541,0.5171141649048626,0.9900739957716702,0.6793361522198732,0.7607589852008456,0.5091141649048625,0.5905285412262157,0.5272727272727272,0.3519027484143763,-0.0645940803382664,0.5759661733615222,0.38681395348837205
0.046875,0.24146511627906977,0.23987949260042288,0.210507399577167,0.4242854122621565,0.09971670190274844,-0.01320718816067654,0.007405919661733616,-0.009004228329809719,0.054957716701902734,-0.006608879492600403,-0.004471458773784364,0.2959090909090909,0.12289640591966172,0.4770401691331924,0.13399154334038055,0.4724016913319239,0.3207822410147992,0.1918372093023256,-0.0877272727272727,0.04339534883720931,0.09537843551797043,0.027279069767441867,0.10720930232558139,0.04310993657505283,0.20155813953488372,0.12222410147991541,0.23527906976744184,-0.1712790697674419,-0.16225581395348837,-0.1378372093023256,-0.11369978858350951,-0.0910782241014799,-0.11958985200845666,-0.09819661733615222,0.030209302325581406,-0.13929809725158562,0.2035517970401692,0.2773572938689218,0.2217124735729387,-0.042634249471458774,0.8593763213530655,0.3839915433403805,0.5819471458773784,0.680029598308668,0.6066871035940804,0.9520443974630022,0.46499788583509516,1.0455179704016913,0.5577674418604651,0.8255729386892178,0.4087293868921776,0.8992135306553912,0.5668372093023255,1.030171247357294,0.7114672304439746,0.47593023255813954,0.49320295983086687,0.19498308668076111,-0.23801479915433407,0.4324503171247357,0.20510147991543337
0.05078125,0.2239260042283298,0.2749302325581395,0.15474630021141644,0.49861945031712473,0.09554756871035941,-0.2826871035940804,0.023926004228329804,-0.07406342494714588,0.17676532769556025,-0.0004038054968287504,0.002733615221987334,0.283507399577167,0.1538816067653277,0.4295813953488372,0.21449894291754756,0.4662093023255814,0.4797526427061311,0.20115010570824524,-0.13520507399577164,0.037190274841437644,0.07575264270613107,0.06856659619450316,0.15469344608879496,0.07096194503171249,0.27691754756871034,-0.01709936575052857,0.32405708245243126,-0.1402832980972516,-0.154,-0.08827906976744186,-0.16638477801268503,-0.12305285412262157,-0.08658985200845663,-0.13742283298097252,0.05908456659619451,-0.0226342494714588,0.2644376321353065,0.369262156448203,0.3053255813953489,-0.05914164904862578,0.7231268498942918,0.2951902748414376,0.489014799154334,0.674877378435518,0.6386659619450317,0.8849408033826639,0.4670845665961945,0.9670528541226215,0.5557167019027484,0.7646701902748414,0.4304164904862579,0.8300359408033826,0.5781902748414376,0.8309619450317125,0.4998139534883721,0.42432558139534887,0.5283192389006343,0.13821987315010567,-0.24627272727272723,0.3643128964059197,0.18855602536997884
0.0546875,0.227,0.3018076109936575,0.14132980972515855,0.4438964059196617,0.1007019027484144,-0.2135010570824524,-0.1081860465116279,-0.16799577167019028,0.19019873150105707,0.05013742071881604,0.020287526427061296,0.29178224101479916,0.20235940803382665,0.43678646934460885,0.31256871035940803,0.29997674418604653,0.5262156448202959,0.24345877378435518,0.021691331923890018,0.025847780126849882,0.04791120507399578,0.1263615221987315,0.17533615221987314,0.13702114164904863,0.3491670190274841,0.002496828752642693,0.4087272727272727,-0.13723044397463002,-0.1839365750528541,-0.06971670190274841,-0.15809936575052855,-0.11068287526427063,-0.014325581395348841,-0.1910803382663848,0.19639746300211414,0.13531923890063421,0.32531923890063424,0.4219069767441861,0.33731289640591966,-0.08701691331923891,0.6611987315010571,0.28799365750528544,0.49004862579281183,0.6831353065539112,0.7233023255813954,0.8994164904862579,0.5227822410147992,0.9835729386892178,0.6146046511627906,0.8204270613107822,0.5491331923890064,0.8300443974630021,0.6762494714587738,0.614154334038055,0.5617822410147992,0.4883128964059196,0.5902558139534884,0.16403171247357298,-0.15030655391120507,0.3643276955602537,0.3175983086680761
0.05859375,0.22703382663847776,0.28011627906976744,0.1464904862579281,0.30868076109936576,0.05839323467230441,-1.6205475687103594,-1.4398668076109937,-0.1411416490486258,0.2511183932346723,0.08425581395348838,0.060551797040169116,0.33510359408033824,0.2870169133192389,0.4832748414376321,0.3951374207188161,0.08219450317124732,0.28154122621564476,0.28789006342494716,0.19925792811839327,0.0052093023255814,0.01693446088794928,0.15631289640591964,0.12991966173361524,0.1370274841437632,0.3027209302325581,0.16248625792811838,0.4004439746300211,-0.1816215644820296,-0.2180063424947146,-0.050101479915433386,-0.13436997885835097,0.03073361522198732,0.015632135306553913,-0.27057716701902745,0.33779281183932347,0.1797209302325581,0.32225581395348835,0.4146976744186046,0.24341014799154337,-0.1262473572938689,0.704536997885835,0.38815010570824526,0.587122621564482,0.7471733615221987,0.8286109936575052,0.9829978858350951,0.6415095137420718,1.0310549682875265,0.6972304439746301,0.9174482029598308,0.6957040169133192,0.896107822410148,0.7846067653276955,-1.1593572938689218,-1.6576997885835094,0.6101353065539112,0.6934376321353065,0.24249894291754756,0.04586046511627909,0.4252050739957716,0.538507399577167
0.0625,0.15684778012684988,0.2037124735729387,0.17130232558139538,0.1414355179704017,0.0026744186046511863,-0.12368287526427062,0.04560042283298097,-0.24025369978858352,0.21909302325581395,0.08941437632135306,0.07189640591966176,0.35578224101479916,0.34794714587737846,0.5162959830866808,0.45297885835095136,0.43733192389006337,0.7615983086680761,0.3363868921775898,0.28801057082452436,-0.030913319238900627,-0.06153276955602536,0.07475264270613108,0.041156448202959856,0.0740042283298097,0.17779915433403803,0.34315433403805495,0.29310993657505285,-0.21978646934460888,-0.23966173361522197,-0.09446934460887949,-0.06418393234672307,0.09474418604651165,-0.044243128964059214,-0.2974207188160677,0.36258985200845667,0.06923467230443972,0.2706363636363637,0.31765539112050734,0.10711839323467234,-0.18612684989429173,0.7912854122621565,0.5243720930232558,0.6944630021141649,0.8514312896405919,0.9380718816067652,1.0727970401691331,0.7623002114164904,1.14253911205074,0.7942177589852009,0.9794186046511628,0.7421775898520084,1.023080338266385,0.8858054968287526,0.9940528541226216,1.6632473572938689,0.7164587737843552,0.7461120507399577,0.2641712473572939,0.18317124735729387,0.5057251585623679,0.6613636363636364
0.06640625,0.07319238900634252,0.09115856236786467,0.11448625792811844,0.03509302325581395,-0.0953890063424947,-0.16085412262156448,-0.007042283298097251,-0.23405073995771672,0.21601057082452432,-0.007619450317124711,0.07912473572938689,0.3547420718816068,0.3850866807610994,0.49874841437632134,0.4808541226215645,0.5219408033826639,0.8978308668076109,0.3394630021141649,0.25292811839323465,-0.10730021141649049,-0.10282875264270615,-0.07802748414376319,-0.0517737843551797,-0.09112262156448203,0.019862579281183925,0.379276955602537,0.12688160676532764,-0.28999788583509517,-0.23039746300211417,-0.1904904862579281,-0.01773784355179705,0.04521141649048627,-0.1506025369978858,-0.3252727272727273,0.2500655391120507,-0.05876744186046508,0.1447061310782241,0.154568710359408,-0.05287949260042281,-0.2542367864693446,0.849093023255814,0.6245348837209301,0.7450655391120508,0.9267674418604651,1.0164883720930231,1.1409513742071882,0.8634904862579281,1.2106849894291756,0.872676532769556,1.009353065539112,0.7225496828752643,1.0994820295983085,0.9559746300211416,0.990936575052854,1.1543340380549683,0.7752875264270613,0.7987568710359408,0.2011966173361522,0.28742917547568714,0.49955179704016917,0.7036828752642705
0.0703125,-0.08267019027484143,-0.04715856236786469,-0.010429175475687084,-0.004135306553911238,-0.21926638477801266,-0.22693023255813954,0.13746511627906977,-0.2330105708245243,0.312031712473573,-0.12945031712473573,0.05333192389006342,0.31864482029598307,0.4016131078224101,0.46160887949260043,0.5149090909090909,0.7119069767441861,1.2787632135306555,0.3787040169133193,0.07847780126849899,-0.21465750528541228,-0.16992389006342493,-0.253507399577167,-0.10546723044397466,-0.27176955602536995,-0.05138054968287528,0.23889640591966177,-0.008363636363636389,-0.35709513742071886,-0.19220507399577166,-0.3102325581395349,0.011200845665961953,-0.12823044397463002,-0.20116701902748418,-0.34284566596194505,0.011636363636363613,-0.08250739957716702,-0.006044397463002125,-0.0013023255813953932,-0.2025813953488372,-0.33476109936575055,0.9038118393234673,0.6276384778012685,0.7264651162790697,0.9608393234672304,1.1042663847780128,1.1595454545454547,0.9925052854122621,1.250938689217759,1.0254503171247358,0.9980084566596195,0.7607568710359407,1.1418118393234673,1.0757336152219874,1.411107822410148,1.5290380549682876,0.7752917547568711,0.8204439746300212,0.07320507399577167,0.30706765327695557,0.42211416490486253,0.632446088794926
0.07421875,-0.2426723044397463,-0.12352642706131077,-0.22617758985200845,-0.0020317124735729918,-0.3245835095137421,-0.1350232558139535,0.09619873150105707,0.00128752642706131,0.5039957716701903,-0.22239112050739956,0.07397885835095139,0.3134799154334038,0.4356680761099366,0.42440380549682877,0.6160697674418605,1.110357293868922,1.4459936575052854,0.37870824524312896,-0.07122621564482029,-0.33546934460887945,-0.20707188160676532,-0.3990549682875264,-0.10129386892177591,-0.4338498942917548,-0.04623890063424947,-0.04909936575052851,-0.04652431289640595,-0.4407293868921776,-0.21799154334038054,-0.4216892177589852,0.04734038054968287,-0.3501649048625793,-0.2115031712473573,-0.38929386892177587,-0.23407399577167015,-0.007131078224101483,-0.21764693446088795,-0.15101479915433405,-0.3264376321353065,-0.41528329809725156,0.866615221987315,0.5811797040169133,0.6057061310782241,0.9794228329809725,1.1909746300211417,1.1729513742071882,1.1803805496828754,1.2984038054968288,1.2762854122621565,1.0526701902748414,0.9321183932346723,1.1304714587737843,1.2161479915433404,1.5370380549682876,1.9553932346723044,0.7309112050739958,0.8648372093023255,-0.08888794926004227,0.21208879492600421,0.3302727272727273,0.626262156448203
0.078125,-0.35725158562367865,-0.20919661733615225,-0.49868287526427063,-0.05778435517970402,-0.4174989429175476,-0.09581606765327695,0.04150739957716702,0.0033678646934460926,0.3564143763213531,-0.26570401691331924,0.14830655391120506,0.3031585623678647,0.49452219873150105,0.42440591966173363,0.777105708245243,1.5862790697674418,1.7753319238900633,0.3714820295983086,-0.22708033826638482,-0.41702748414376317,-0.22876744186046513,-0.45275475687103595,-0.09202748414376322,-0.5164397463002114,0.031215644820295936,-0.3887484143763214,0.019522198731501017,-0.49438054968287526,-0.1994186046511628,-0.4692283298097251,0.06382029598308668,-0.5174059196617337,-0.12063424947145876,-0.41716701902748415,-0.3971881606765328,0.05168921775898519,-0.4127674418604651,-0.2635095137420719,-0.42246088794926007,-0.4875729386892178,0.7737061310782242,0.5058181818181818,0.4322515856236786,0.9918033826638477,1.3127780126849893,1.25861733615222,1.4570211416490488,1.441909090909091,1.6696046511627907,1.20238689217759,1.2655433403805496,1.086046511627907,1.3905877378435516,2.9141416490486254,3.163183932346723,0.5956786469344608,0.8472706131078225,-0.19624735729386894,0.08613107822410147,0.30964482029598317,0.7088350951374207
0.08203125,-0.4315813953488372,-0.22158985200845666,-0.6958879492600424,-0.1568985200845666,-0.46187737843551796,0.018765327695560257,-0.04830655391120507,0.10247357293868924,0.25629175475687105,-0.21719450317124733,0.2484355179704017,0.3454630021141649,0.5636828752642706,0.52453911205074,0.9835750528541226,1.623446088794926,1.6287378435517972,0.39417758985200846,-0.28903805496828755,-0.445906976744186,-0.22360887949260042,-0.46825792811839323,-0.06932558139534886,-0.5391522198731501,0.1230909090909091,-0.5879873150105708,0.09593023255813951,-0.5170951374207189,-0.2169556025369979,-0.41654756871035936,0.05141649048625791,-0.5473361522198731,-0.0019238900634249605,-0.46569133192389006,-0.4085433403805496,0.06924947145877379,-0.5727653276955603,-0.32030021141649045,-0.43998308668076114,-0.5081987315010571,0.5992684989429176,0.4717357293868922,0.1349577167019027,1.031029598308668,1.4407758985200845,1.4547716701902749,1.808016913319239,1.7258266384778014,2.135164904862579,1.4377357293868922,1.6898393234672304,0.9982875264270613,1.4504735729386893,2.6818541226215644,3.225120507399577,0.3758350951374207,0.808046511627907,-0.21378012684989428,0.0066448202959830715,0.39115433403805494,0.872985200845666
0.0859375,-0.38516067653276953,-0.15967441860465112,-0.7495560253699789,-0.24255602536997886,-0.43812050739957714,-0.047304439746300206,0.040443974630021154,0.13036363636363635,0.15615010570824525,-0.08400000000000003,0.31556236786469344,0.44351797040169133,0.6328393234672304,0.7175665961945031,1.1621585623678647,1.6616046511627907,1.485217758985201,0.4117040169133192,-0.27662579281183935,-0.37879915433403805,-0.1492832980972516,-0.3794735729386893,-0.02080761099365752,-0.46686892177589856,0.1323826638477801,-0.611706131078224,0.1599365750528541,-0.4582515856236787,-0.24173361522198733,-0.3515221987315011,0.006010570824524299,-0.43276532769556025,0.0630803382663848,-0.4873784355179704,-0.2578181818181818,0.11672727272727276,-0.5665729386892177,-0.32648202959830863,-0.356384778012685,-0.4410782241014799,0.37318393234672304,0.444906976744186,-0.17990697674418604,1.0919534883720932,1.5202706131078223,1.8026575052854124,2.1796659619450316,2.1882515856236786,2.664767441860465,1.849630021141649,2.071788583509514,0.8919873150105708,1.4298118393234673,2.9172410147991545,3.3903023255813953,0.09296828752642704,0.7409513742071882,-0.1446046511627907,0.033490486257928095,0.5769746300211416,1.0474503171247358
0.08984375,-0.27983298097251585,-0.07914164904862578,-0.6277188160676532,-0.2776701902748414,-0.3245729386892178,0.8446173361522199,1.1006236786469346,0.10866596194503171,0.2851775898520085,0.08217547568710355,0.35268710359408034,0.5632748414376321,0.6968752642706132,0.988046511627907,1.287065539112051,1.5749196617336152,1.5213784355179703,0.42101902748414377,-0.21161099365750538,-0.27248625792811837,-0.06463213530655389,-0.2545475687103594,0.030799154334038074,-0.4018287526427061,0.09313107822410151,-0.5219302325581395,0.14959830866807608,-0.4231649048625793,-0.23452219873150107,-0.31231078224101483,-0.06004862579281184,-0.31819450317124737,0.09304016913319234,-0.47086680761099364,-0.10402114164904859,0.17042917547568714,-0.470553911205074,-0.30895560253699794,-0.24487526427061312,-0.3492283298097252,0.1791183932346723,0.41909090909090907,-0.4772135306553911,1.219968287526427,1.6369006342494714,2.2506659619450318,2.5471437632135308,2.7911437632135305,3.1540359408033827,2.3750803382663848,2.440319238900634,0.8734038054968287,1.4184672304439745,3.551090909090909,4.4793720930232555,-0.20951162790697672,0.7750126849894292,-0.02591120507399578,0.2172114164904862,0.8598329809725158,1.1785454545454546
0.09375,-0.18691543340380548,-0.04197040169133193,-0.4635835095137421,-0.27043763213530647,-0.2688181818181818,0.06317336152219874,-0.029735729386892184,-0.10915221987315012,0.19328752642706132,0.20193023255813952,0.3744038054968287,0.7160739957716702,0.7598393234672305,1.2904968287526426,1.3768710359408034,1.4200697674418605,1.4377357293868922,0.48404228329809723,-0.1548266384778012,-0.19816067653276956,-0.04089217758985199,-0.2039492600422833,0.028735729386892183,-0.36881606765327696,0.045653276955602555,-0.43623890063424947,0.01126004228329811,-0.4117970401691332,-0.25206553911205076,-0.31231289640591964,-0.10135729386892178,-0.25933192389006343,0.04141437632135303,-0.4543298097251586,-0.02967864693446088,0.10847991543340378,-0.35494080338266387,-0.2934482029598308,-0.2655158562367865,-0.2645729386892178,0.1109704016913319,0.49030866807610995,-0.6258625792811839,1.4315813953488372,1.7773340380549683,2.786479915433404,2.8939788583509514,3.4879619450317128,3.6165179704016914,2.9934164904862577,2.779932346723044,0.9105708245243129,1.4793763213530655,2.2958097251585627,3.186938689217759,-0.37676744186046507,0.9061035940803382,0.09798942917547569,0.427830866807611,1.1406088794926006,1.3086257928118394
0.09765625,-0.22720084566596194,-0.12455602536997887,-0.45843340380549685,-0.35820084566596194,-0.29772093023255813,-0.011162790697674424,0.13952008456659618,-0.19999577167019028,0.19226638477801267,0.2215602536997886,0.38675687103594075,0.8873974630021141,0.8455095137420718,1.5382727272727272,1.485274841437632,1.3405813953488372,1.3324672304439749,0.5583319238900635,-0.18370190274841441,-0.21982452431289642,-0.1234799154334038,-0.23186046511627909,-0.020797040169133203,-0.44107610993657503,-0.10197040169133197,-0.46825158562367863,-0.21790063424947148,-0.47167653276955607,-0.27989852008456656,-0.3752832980972516,-0.18701057082452432,-0.32746088794926,-0.04427272727272725,-0.4677632135306554,-0.2134186046511628,-0.19809725158562366,-0.35493023255813955,-0.37499999999999994,-0.5463424947145877,-0.26454545454545453,0.2028541226215645,0.5811754756871036,-0.5845771670190275,1.7237167019027484,1.933200845665962,3.27369133192389,3.246,4.079486257928118,4.024266384778013,3.5281775898520085,3.083414376321353,1.0912093023255816,1.6383699788583508,2.4888393234672304,2.6573361522198735,-0.3860211416490486,1.1250063424947148,0.10621141649048624,0.5289767441860466,1.3264164904862579,1.4417737843551799
0.1015625,-0.4419196617336152,-0.3464883720930232,-0.7237209302325581,-0.6110739957716702,-0.49903382663847784,-0.12370190274841439,-0.03386257928118395,-0.3579344608879493,0.1746997885835095,0.10696194503171247,0.3568414376321353,1.0298837209302325,0.9218816067653277,1.6796786469344607,1.5647758985200846,0.9276934460887949,1.1352642706131078,0.6626046511627907,-0.4108646934460888,-0.36333615221987314,-0.28349260042283303,-0.4011289640591966,-0.19835306553911206,-0.6506194503171248,-0.2815792811839324,-0.7180613107822411,-0.4935137420718816,-0.5666596194503172,-0.33255179704016913,-0.5187568710359408,-0.2334630021141649,-0.508093023255814,-0.1732875264270613,-0.5307061310782241,-0.5644291754756872,-0.5387589852008456,-0.631600422832981,-0.6196701902748414,-1.0738393234672303,-0.42457716701902753,0.30918816067653276,0.6379069767441861,-0.5319260042283298,1.945661733615222,2.0653298097251587,3.5637801268498945,3.4793023255813953,4.372627906976745,4.218367864693446,3.721232558139535,3.2909112050739955,1.2429534883720932,1.6496955602536998,1.7971797040169133,1.852124735729387,-0.32718604651162786,1.3015158562367863,0.01021987315010567,0.43402114164904865,1.350169133192389,1.5295412262156447
0.10546875,-0.7835983086680761,-0.6696257928118393,-1.157321353065539,-0.9662156448202961,-0.8118118393234672,0.5246004228329809,0.3191754756871036,-0.3785877378435518,0.17574418604651165,-0.09951797040169134,0.31965750528541226,1.089737843551797,0.9652219873150106,1.630169133192389,1.5637145877378433,0.5787357293868922,1.0041649048625791,0.7172938689217759,-0.7762706131078224,-0.5956046511627907,-0.5095602536997885,-0.6210147991543341,-0.3924291754756871,-0.9530887949260042,-0.4994397463002114,-1.070063424947146,-0.6896723044397463,-0.6585496828752643,-0.392431289640592,-0.6550211416490486,-0.22931923890063427,-0.7517547568710359,-0.30028329809725157,-0.5823424947145877,-0.9298689217758984,-0.742137420718816,-1.092002114164905,-1.028446088794926,-1.542490486257928,-0.6496215644820297,0.26375475687103594,0.4665856236786469,-0.5752431289640593,1.9446342494714588,1.982723044397463,3.472942917547569,3.465906976744186,4.191989429175475,4.109972515856237,3.4631416490486258,3.180492600422833,1.181014799154334,1.2811733615221987,1.6660782241014798,2.0152621564482027,-0.45727484143763214,1.2664059196617337,-0.22309725158562368,0.15425581395348836,1.1932684989429174,1.5398350951374207
0.109375,-1.109799154334038,-0.9761923890063424,-1.5051987315010569,-1.2243044397463003,-1.1318329809725158,-0.01426215644820296,-0.13403382663847777,-0.4611627906976744,0.03742706131078223,-0.319399577167019,0.26496194503171244,1.0298710359408034,0.9012494714587738,1.4133551797040167,1.42953488372093,0.3495644820295983,0.6655644820295983,0.7090295983086681,-1.1014524312896405,-0.8371733615221988,-0.7005412262156449,-0.8842706131078224,-0.5689661733615221,-1.2091141649048625,-0.5974947145877378,-1.3704778012684988,-0.7949556025369979,-0.7276892177589852,-0.41309090909090906,-0.8098604651162791,-0.21797885835095138,-0.9561437632135306,-0.3869746300211417,-0.6050443974630021,-1.0949894291754756,-0.6657505285412263,-1.5090570824524312,-1.3546765327695562,-1.6880528541226214,-0.8798350951374206,-0.11924735729386896,0.01341226215644817,-0.936600422832981,1.682431289640592,1.5977124735729387,3.006338266384778,3.0767124735729388,3.500331923890063,3.5752389006342495,2.782845665961945,2.709716701902748,0.7526109936575053,0.45220718816067657,0.6327526427061311,0.6009767441860465,-0.886706131078224,1.0372346723044399,-0.44503594080338266,-0.1430401691331924,0.9021437632135306,1.3747040169133193
0.11328125,-1.2636236786469344,-1.092862579281184,-1.528953488372093,-1.1541162790697674,-1.2856046511627908,-0.06687526427061312,-0.05246723044397464,-0.490061310782241,-0.06889429175475686,-0.44634249471458776,0.2019725158562368,0.8667780126849894,0.7526131078224101,1.0809471458773785,1.1920845665961946,-0.08811627906976748,0.2278562367864693,0.6264672304439747,-1.1685623678646935,-0.9940613107822409,-0.7480190274841437,-1.0845158562367865,-0.6432706131078224,-1.3319323467230444,-0.5603150105708246,-1.4210697674418604,-0.6669640591966173,-0.7751945031712473,-0.4296025369978858,-0.9461162790697674,-0.2169408033826638,-1.0944376321353064,-0.40970401691331926,-0.6298477801268499,-0.9969408033826639,-0.42315644820295983,-1.636033826638478,-1.4455031712473572,-1.384568710359408,-1.006797040169133,-0.7953974630021142,-0.6751818181818181,-1.464107822410148,1.2158414376321351,0.9308224101479915,2.2641289640591964,2.3159175475687106,2.5000380549682877,2.656492600422833,1.9415116279069768,1.9705898520084568,-0.0051035940803382486,-0.6172473572938689,-0.4470528541226215,-0.43957082452431284,-1.569063424947146,0.689338266384778,-0.5947082452431289,-0.28550951374207184,0.5738879492600423,1.0629154334038056
0.1171875,-1.1469936575052855,-0.9493868921775899,-1.133551797040169,-0.7525221987315011,-1.167968287526427,-0.29506553911205075,-0.22694714587737844,-0.4642473572938689,-0.25472727272727275,-0.47116701902748415,0.18236997885835093,0.6892050739957716,0.5368435517970401,0.7599154334038055,0.8679725158562368,-0.39782663847780125,-0.4173255813953488,0.519107822410148,-0.9311268498942917,-1.008507399577167,-0.6778266384778012,-1.1361331923890063,-0.5637716701902749,-1.2050211416490486,-0.3693150105708245,-1.15576955602537,-0.3634566596194503,-0.8216173361522199,-0.43994080338266384,-1.0596575052854122,-0.27269556025369973,-1.0676194503171248,-0.29717970401691335,-0.6277970401691332,-0.7430042283298098,-0.16508033826638477,-1.361443974630021,-1.1451120507399577,-0.884923890063425,-1.0336659619450317,-1.4911966173361522,-1.3998393234672304,-2.005014799154334,0.7079154334038055,0.1617336152219873,1.4712980972515857,1.3548393234672305,1.5224249471458773,1.5818435517970402,1.1672832980972516,1.156109936575053,-0.7999788583509515,-1.6619323467230442,-1.9129450317124734,-2.2956701902748415,-2.272067653276956,0.43331289640591963,-0.6071183932346722,-0.19466807610993658,0.27554334038054973,0.8027949260042283
0.12109375,-0.7609090909090909,-0.5694735729386892,-0.5183171247357294,-0.16308033826638477,-0.8551670190274842,-0.16703382663847782,0.0012050739957716618,-0.4188477801268499,-0.2877526427061311,-0.4174566596194503,0.16071881606765323,0.5735919661733616,0.33245454545454545,0.5317822410147991,0.5623826638477801,-0.6569281183932346,-0.6113720930232558,0.4468076109936575,-0.4572790697674418,-0.8887737843551797,-0.5105581395348837,-1.0360126849894291,-0.3893171247357294,-0.8798054968287525,-0.08028118393234673,-0.6974059196617337,0.04225158562367862,-0.8608562367864694,-0.44511416490486255,-1.0596680761099366,-0.39143974630021144,-0.9654397463002115,-0.14129809725158562,-0.6453403805496828,-0.5355200845665963,0.05478012684989427,-0.7895264270613108,-0.5835306553911205,-0.385306553911205,-0.9149196617336153,-2.031067653276956,-2.000659619450317,-2.3446490486257927,0.3115243128964059,-0.5174862579281184,0.8271353065539112,0.43196405919661734,0.768860465116279,0.6135433403805496,0.5881585623678646,0.5367526427061311,-1.442076109936575,-2.390756871035941,-2.645860465116279,-3.383704016913319,-2.772752642706131,0.26199365750528536,-0.48423255813953486,0.16254334038054966,0.08353911205073994,0.6262536997885836
0.125,-0.300507399577167,-0.12664270613107825,-0.03930021141649051,0.30353699788583505,-0.412306553911205,-0.36526427061310784,-0.21966807610993655,-0.43329598308668077,-0.34245454545454546,-0.4205644820295983,0.08226215644820295,0.4899809725158562,0.1559154334038055,0.35625158562367865,0.26611205073995775,-0.7529344608879494,-0.6238033826638478,0.40040380549682875,0.017585623678646876,-0.6585771670190275,-0.34334672304439745,-0.7696744186046511,-0.17977589852008452,-0.511293868921776,0.12825369978858353,-0.26179915433403805,0.405585623678647,-0.8009809725158563,-0.47915644820295983,-0.9801818181818182,-0.4647188160676533,-0.8023298097251585,-0.00916490486257931,-0.617431289640592,-0.4942283298097252,0.1765940803382664,-0.1804799154334038,0.026570824524312926,-0.09831923890063424,-0.7188118393234673,-2.4006257928118395,-2.4001268498942916,-2.530475687103594,0.04621564482029595,-0.9737949260042283,0.3646532769556025,-0.2844714587737844,0.2155517970401691,-0.19578012684989426,0.07816913319238898,0.061866807610993654,-1.8374545454545455,-2.8532198731501057,-3.70192177589852,-4.118725158562368,-3.019429175475687,0.14118393234672302,-0.3283868921775899,0.5104016913319239,-0.0754524312896406,0.5498816067653277
0.12890625,0.11758985200845667,0.22645031712473573,0.17849682875264272,0.543044397463002,-0.054097251585623674,-0.4488583509513742,-0.24754545454545454,-0.4219154334038055,-0.394107822410148,-0.4412114164904863,-0.07672093023255812,0.41464059196617337,0.020684989429175484,0.15600634249471462,-0.04874841437632136,-0.9800570824524313,-0.7941141649048625,0.3270718816067653,0.30661733615221987,-0.36850739957716705,-0.1358477801268499,-0.41871881606765327,-0.013572938689217754,-0.21912473572938693,0.2758393234672304,-0.03983298097251583,0.5821543340380549,-0.6637040169133193,-0.4389260042283298,-0.7737315010570825,-0.3862452431289641,-0.6062114164904863,0.000122621564482033,-0.5296849894291755,-0.49317758985200844,0.22721775898520086,0.22830866807610994,0.44878224101479913,0.05447357293868922,-0.4535031712473573,-2.669031712473573,-2.7129513742071882,-2.7162811839323466,-0.19944608879492595,-1.3381923890063425,-0.03172515856236786,-0.862551797040169,-0.3398541226215645,-0.8574947145877377,-0.586615221987315,-0.36138054968287525,-2.1192684989429176,-3.2248372093023256,-4.189164904862579,-4.534731501057082,-3.1453742071881607,-0.0673551797040169,-0.24269978858350952,0.6735306553911204,-0.29945665961945034,0.454906976744186
0.1328125,0.3694630021141649,0.4339112050739958,0.1547463002114165,0.5677843551797039,0.22562367864693444,-0.41480338266384775,-0.4571247357293869,-0.4890169133192389,-0.30529809725158563,-0.5496025369978859,-0.2563467230443975,0.22983932346723043,-0.17234038054968287,-0.1185708245243129,-0.3574207188160677,-1.3805792811839324,-1.1677780126849895,0.19596828752642706,0.38609725158562364,-0.044348837209302334,0.04994503171247354,-0.10073361522198732,0.13614164904862577,-0.06635095137420718,0.33574418604651163,-0.02951585623678647,0.5862558139534884,-0.4458858350951374,-0.3408498942917548,-0.5394016913319238,-0.17563002114164905,-0.46579915433403807,-0.033951374207188155,-0.3645560253699789,-0.4178224101479916,0.21790697674418597,0.3996807610993658,0.5829640591966174,0.19075898520084564,-0.17786046511627904,-3.0654164904862578,-3.1320380549682874,-3.0652029598308665,-0.595877378435518,-1.7314883720930234,-0.5737209302325581,-1.3910993657505286,-1.1016849894291754,-1.5821797040169132,-1.487801268498943,-0.9663107822410146,-2.5363319238900632,-3.6935052854122623,-4.861224101479915,-5.488575052854123,-3.3724989429175474,-0.3935517970401691,-0.29947780126849893,0.5351902748414376,-0.6824397463002114,0.17412473572938691
0.13671875,0.5264038054968287,0.5319894291754756,0.15062579281183933,0.5306363636363636,0.355723044397463,-0.29300634249471463,-0.31673784355179707,-0.6665877378435517,-0.2743213530655392,-0.6786680761099365,-0.36474207188160673,-0.03958773784355178,-0.39842283298097253,-0.5418350951374208,-0.7279640591966173,-1.9772769556025371,-1.5673171247357294,-0.00014587737843551506,0.33450528541226215,0.19205285412262157,0.24403171247357291,0.13359830866807612,0.25482663847780124,-0.019887949260042254,0.4183255813953488,-0.11312050739957716,0.5739154334038055,-0.21050105708245243,-0.17047780126849896,-0.36184566596194506,0.021517970401691327,-0.35943974630021136,-0.11445031712473569,-0.15290063424947145,-0.22786680761099365,0.19416279069767442,0.4481923890063425,0.5850465116279069,0.4106257928118393,0.07816067653276954,-3.6218541226215644,-3.6905031712473573,-3.572065539112051,-1.1625919661733615,-2.214646934460888,-1.397475687103594,-2.043522198731501,-2.100964059196617,-2.4028604651162793,-2.5469344608879494,-1.806598308668076,-3.1742684989429177,-4.239619450317124,-5.8511754756871035,-5.937640591966173,-3.7689090909090908,-0.8002854122621563,-0.4894270613107822,0.17904651162790697,-1.1830951374207188,-0.3162494714587738
0.140625,0.634784355179704,0.6279619450317125,0.2590528541226216,0.5801649048625792,0.4589598308668076,-0.43544397463002116,-0.46226849894291755,-0.7275116279069768,-0.2691627906976744,-0.8076680761099365,-0.4236131078224102,-0.384367864693446,-0.6534016913319238,-1.0610739957716702,-1.1047589852008457,-2.270414376321353,-1.9678393234672305,-0.20557082452431288,0.3107589852008457,0.36339323467230444,0.4370909090909091,0.22753911205073993,0.40552642706131076,-0.004408033826638474,0.5122473572938688,-0.07081395348837208,0.6316955602536999,-0.054630021141649034,0.005008456659619461,-0.3009365750528541,0.17841437632135307,-0.32122198731501056,-0.09792177589852008,0.02776321353065539,-0.044128964059196626,0.17146088794926004,0.5503932346723045,0.6191162790697674,0.6439344608879493,0.2711881606765328,-4.3114080338266385,-4.366668076109937,-4.156338266384778,-1.8367145877378435,-2.711135306553911,-2.367858350951374,-2.7434228329809724,-3.2674503171247355,-3.3215877378435517,-3.632953488372093,-2.7480761099365747,-3.935057082452431,-4.800162790697674,-6.847348837209302,-6.807839323467231,-4.273731501057083,-1.197708245243129,-0.7051649048625793,-0.17813107822410146,-1.710627906976744,-0.9459492600422833
0.14453125,0.7638012684989429,0.7467040169133192,0.5067505285412263,0.7267568710359408,0.5931606765327696,-0.5035961945031713,-0.5500021141649049,-0.8121543340380549,-0.5014439746300211,-0.9976109936575053,-0.47107188160676533,-0.7147336152219873,-0.8877399577167019,-1.56276955602537,-1.4547463002114165,-2.8526575052854124,-2.477801268498943,-0.39448202959830864,0.32519873150105705,0.4614862579281184,0.5692241014799154,0.2543594080338267,0.5521268498942917,0.03893657505285413,0.6794862579281183,0.09230232558139537,0.776232558139535,8.456659619451264e-05,0.1464291754756871,-0.3318985200845666,0.17223678646934457,-0.3388097251585624,0.055894291754756846,0.15989640591966173,-0.0296575052854123,0.17763213530655395,0.7114418604651163,0.7398837209302326,0.8090972515856237,0.42396828752642707,-4.937021141649049,-5.006689217758986,-4.679704016913319,-2.4973995771670188,-3.17053488372093,-3.2535877378435516,-3.422668076109937,-4.332786469344609,-4.218680761099366,-4.535179704016913,-3.623479915433404,-4.705198731501057,-5.2326638477801275,-7.269558139534884,-7.446873150105708,-4.7506300211416495,-1.5229154334038055,-0.9054228329809725,-0.3649619450317125,-2.22469133192389,-1.5508773784355179
0.1484375,0.9196871035940803,0.909784355179704,0.7132410147991544,0.85269133192389,0.742845665961945,-0.5056532769556026,-0.5489915433403806,-0.8968054968287527,-0.7770655391120508,-1.195832980972516,-0.657909090909091,-1.0140803382663848,-1.1128033826638477,-2.0004968287526426,-1.8036680761099366,-3.295507399577167,-2.9898097251585627,-0.5627632135306554,0.35719873150105713,0.542029598308668,0.732338266384778,0.27090274841437634,0.6625771670190275,0.16075052854122623,0.7878837209302325,0.3204228329809725,0.9465517970401692,0.03827906976744187,0.23416067653276953,-0.3535623678646934,0.09377589852008454,-0.3511881606765328,0.22827272727272727,0.24451797040169135,-0.17110782241014796,0.1983002114164905,0.8766257928118394,0.9618329809725159,0.8472959830866807,0.5499238900634249,-5.4934059196617335,-5.553841437632135,-5.133945031712473,-3.0063107822410147,-3.5163594080338267,-3.9514059196617337,-3.9429492600422833,-5.124587737843552,-4.905139534883721,-5.285676532769556,-4.360511627906977,-5.308057082452432,-5.5744038054968295,-7.7691945031712475,-7.660549682875264,-5.168710359408034,-1.8150401691331923,-1.0819725158562368,-0.4217505285412263,-2.686177589852009,-2.094887949260042
0.15234375,1.0786807610993658,1.099754756871036,0.7596976744186046,0.9187949260042284,0.927630021141649,-0.5376532769556025,-0.5613720930232559,-1.0340718816067653,-0.9690739957716702,-1.4435496828752643,-1.011997885835095,-1.2318921775898521,-1.3388752642706132,-2.321545454545454,-2.165987315010571,-3.683657505285412,-3.39138689217759,-0.7413615221987315,0.3417061310782241,0.6803298097251586,0.8830295983086681,0.38651585623678647,0.7596131078224102,0.2825877378435518,0.8167801268498943,0.45466384778012686,1.0425348837209303,0.1497632135306554,0.29508245243128967,-0.2834122621564482,0.04627272727272729,-0.3460359408033827,0.2633763213530655,0.39008668076109937,-0.35895560253699793,0.12087737843551796,0.9850021141649049,1.1290570824524313,0.8916744186046511,0.7130253699788583,-6.042604651162791,-5.986355179704017,-5.603619450317125,-3.4037632135306555,-3.7713340380549685,-4.458272727272727,-4.355887949260042,-5.645906976744186,-5.454321353065539,-5.925729386892177,-4.996439746300211,-5.787052854122622,-5.932579281183933,-7.370731501057083,-7.733858350951373,-5.5217441860465115,-2.1825327695560253,-1.273987315010571,-0.5384080338266385,-3.11868710359408,-2.5997167019027483
0.15625,1.2294101479915434,1.2308520084566597,0.7153065539112051,0.8929661733615222,1.0835010570824524,-0.7534122621564483,-0.4932684989429176,-1.127012684989429,-1.1260063424947147,-1.6603509513742072,-1.487919661733615,-1.4662367864693446,-1.6031353065539113,-2.631247357293869,-2.5376257928118395,-3.889061310782241,-3.775380549682875,-0.9385137420718817,0.23229598308668076,0.9084587737843552,1.065752642706131,0.6311479915433404,0.8401416490486258,0.43532980972515856,0.7445433403805497,0.47836575052854124,0.9661522198731501,0.34797463002114165,0.3962515856236786,-0.15022621564482033,0.053475687103594086,-0.33673150105708244,0.08272304439746299,0.603752642706131,-0.49626427061310785,-0.16612050739957718,1.000492600422833,1.1548710359408034,0.953600422832981,0.9711141649048626,-6.6258668076109934,-6.437486257928119,-6.141473572938689,-3.808429175475687,-4.065530655391121,-4.880507399577167,-4.7337061310782245,-6.104257928118393,-5.885852008456659,-6.537862579281184,-5.597232558139535,-6.223693446088794,-6.349619450317125,-7.72377378435518,-7.792704016913319,-5.946046511627907,-2.6171353065539114,-1.5258541226215645,-0.8893636363636364,-3.532630021141649,-3.132359408033827
0.16015625,1.388367864693446,1.3898033826638476,0.7410845665961945,0.8320570824524313,1.2631268498942918,-0.6625560253699789,-0.5139217758985201,-1.2198921775898521,-1.199276955602537,-1.8337885835095138,-1.9534714587737843,-1.7439006342494714,-1.9097463002114163,-2.942970401691332,-2.9174947145877375,-4.024334038054969,-4.022114164904862,-1.1645898520084565,0.05887737843551803,1.214029598308668,1.301124735729387,0.9264249471458774,0.9062177589852008,0.6170570824524313,0.6650274841437632,0.44741226215644814,0.7173594080338266,0.6122515856236785,0.5201035940803383,0.04179915433403804,0.08755602536997885,-0.3098816067653277,-0.21354756871035943,0.8979830866807611,-0.5272579281183932,-0.5893551797040169,0.996321353065539,1.1156575052854123,1.0351733615221987,1.2756363636363637,-7.190547568710359,-6.911338266384778,-6.675188160676533,-4.2615750528541225,-4.373179704016914,-5.287226215644821,-5.105369978858351,-6.558458773784355,-6.304945031712474,-7.0622875264270615,-6.197021141649048,-6.661424947145877,-6.770830866807611,-7.297446088794926,-7.638883720930233,-6.3991902748414375,-3.063107822410148,-1.792171247357294,-1.499509513742072,-3.957949260042283,-3.7156194503171247
0.1640625,1.578293868921776,1.5157484143763216,0.9103974630021141,0.8103699788583509,1.4303171247357294,-2.590906976744186,-2.6621606765327694,-1.219909090909091,-1.1074249471458775,-1.9690021141649048,-2.23115644820296,-1.9927251585623678,-2.1843065539112048,-3.2268562367864697,-3.2199682875264273,-4.263820295983087,-4.400976744186046,-1.4164672304439747,-0.11456871035940798,1.5061775898520084,1.5044968287526426,1.1845052854122624,1.031135306553911,0.7904714587737844,0.6567906976744186,0.46186892177589844,0.4231374207188161,0.8187188160676533,0.6656765327695561,0.16357293868921777,0.1402367864693446,-0.2975179704016913,-0.4643953488372093,1.1519090909090908,-0.5385877378435517,-0.9506638477801269,1.106784355179704,1.0970465116279071,1.1280824524312896,1.5925454545454545,-7.616866807610993,-7.315976744186046,-7.095325581395349,-4.662145877378435,-4.664274841437631,-5.6867336152219865,-5.394412262156448,-6.912560253699788,-6.654959830866807,-7.34408245243129,-6.703881606765328,-7.0454080338266385,-7.027849894291754,-9.219568710359408,-9.83975687103594,-6.806976744186046,-3.4027209302325585,-2.0595750528541226,-2.19115221987315,-4.2955116279069765,-4.262744186046512
0.16796875,1.7713572938689217,1.657181818181818,1.1849746300211415,0.8475475687103595,1.5821057082452432,-0.5582748414376322,-0.45920295983086684,-1.4016067653276956,-1.2405623678646933,-2.0753150105708245,-2.3313128964059198,-2.1929873150105705,-2.3257315010570823,-3.3930528541226215,-3.361427061310782,-3.8860063424947144,-3.8631564482029597,-1.5568710359408033,-0.27867864693446087,1.738446088794926,1.6768752642706133,1.3599936575052856,1.175630021141649,0.9267399577167019,0.7455729386892178,0.6074397463002115,0.24765961945031711,0.922953488372093,0.7998393234672305,0.1852875264270613,0.17945665961945034,-0.2975243128964059,-0.5108858350951374,1.3160655391120508,-0.5107272727272728,-1.1003636363636362,1.2998266384778012,1.1352684989429176,1.2364841437632135,1.8279175475687104,-7.7252663847780125,-7.506955602536998,-7.235729386892178,-4.887181818181818,-4.765446088794926,-5.891105708245243,-5.529627906976745,-7.002353065539111,-6.767441860465116,-7.328615221987315,-6.955750528541227,-7.198215644820296,-7.015477801268498,-6.0091289640591965,-5.934520084566596,-6.950450317124736,-3.5451902748414374,-2.2298710359408034,-2.7640591966173362,-4.454467230443975,-4.677735729386892
0.171875,1.9458118393234674,1.7759302325581394,1.4121268498942918,0.8826405919661734,1.7307484143763214,-0.5779154334038055,-0.6254016913319239,-1.4779809725158564,-1.250892177589852,-2.1775348837209303,-2.3116723044397465,-2.2559725158562367,-2.3237145877378436,-3.403416490486258,-3.305659619450317,-3.7270338266384777,-3.5565327695560254,-1.6084714587737843,-0.4201205073995771,1.8499302325581395,1.7594418604651163,1.4105813953488373,1.3232875264270612,0.9979767441860465,0.8508625792811839,0.7756913319238901,0.20433192389006344,0.9219323467230445,0.8824291754756871,0.12746511627906978,0.26100422832980974,-0.3099196617336152,-0.42827484143763217,1.3336088794926004,-0.504524312896406,-1.151968287526427,1.4639767441860465,1.2488202959830867,1.3283446088794926,1.9352367864693445,-7.529109936575052,-7.415080338266385,-7.0849978858350955,-4.799452431289641,-4.61577378435518,-5.74762156448203,-5.350012684989429,-6.726710359408034,-6.589875264270613,-6.986923890063425,-6.88246934460888,-6.996906976744186,-6.684099365750529,-5.284431289640592,-5.549484143763213,-6.777059196617336,-3.4863319238900634,-2.324890063424947,-3.0438435517970404,-4.472054968287527,-4.879029598308668
0.17578125,2.0376955602536997,1.832689217758985,1.4637209302325582,0.8661205073995772,1.814350951374207,-0.49634249471458775,-0.42202325581395345,-1.4346173361522199,-1.1352558139534883,-2.2364101479915433,-2.2373319238900633,-2.19092177589852,-2.156450317124736,-3.263012684989429,-3.098188160676533,-3.4462367864693446,-3.2323911205074,-1.5733530655391121,-0.5047949260042284,1.82723467230444,1.788384778012685,1.3899154334038053,1.4141205073995773,1.0010570824524312,0.9396427061310783,0.8345200845665962,0.2941162790697675,0.8300782241014799,0.8969027484143763,0.030433403805496827,0.3363720930232558,-0.39560465116279064,-0.3333150105708246,1.2727124735729387,-0.5716342494714587,-1.1911923890063425,1.5630972515856236,1.350983086680761,1.401646934460888,1.9249492600422833,-7.090397463002113,-7.046547568710359,-6.6989386892177585,-4.4649830866807605,-4.243103594080338,-5.294460887949261,-4.895786469344609,-6.135221987315011,-6.087128964059197,-6.496564482029599,-6.54177378435518,-6.524112050739958,-6.144169133192389,-4.2366511627906975,-4.667919661733615,-6.308384778012685,-3.2592177589852005,-2.3279513742071885,-3.0231649048625795,-4.33268710359408,-4.838767441860465
0.1796875,2.0211923890063423,1.827541226215645,1.3852811839323467,0.7979767441860466,1.8184735729386894,0.043551797040169135,0.15400845665961946,-1.4046997885835095,-0.8916575052854123,-2.261169133192389,-2.211522198731501,-2.008188160676533,-1.962357293868922,-3.0121479915433405,-2.819452431289641,-3.3295644820295984,-3.004274841437632,-1.4422684989429175,-0.5161353065539112,1.7818118393234672,1.756336152219873,1.3362367864693445,1.4172071881606765,0.9390845665961944,0.9014207188160677,0.7116871035940803,0.32920507399577165,0.7588245243128965,0.8948181818181818,-0.04904651162790698,0.3476786469344609,-0.46064693446088795,-0.4230845665961945,1.1921945031712473,-0.7399048625792812,-1.3563763213530655,1.5114566596194503,1.379906976744186,1.3778794926004228,1.838228329809725,-6.509207188160676,-6.4849661733615225,-6.178634249471459,-3.9549746300211415,-3.7475961945031715,-4.647194503171248,-4.268131078224101,-5.428093023255814,-5.362439746300212,-5.9391353065539105,-6.005016913319239,-5.821126849894291,-5.454625792811839,-3.421124735729387,-3.602558139534884,-5.6858646934460895,-2.9567780126849894,-2.321758985200846,-2.917875264270613,-4.143750528541226,-4.6467589852008455
0.18359375,1.914828752642706,1.7253446088794926,1.2428202959830867,0.6927251585623678,1.7338350951374208,-0.4127420718816068,-0.18355602536997886,-1.410892177589852,-0.9463594080338266,-2.22915221987315,-2.253896405919662,-1.8007272727272727,-1.751784355179704,-2.707602536997886,-2.498405919661734,-2.856767441860465,-2.6037272727272724,-1.32046088794926,-0.5409112050739958,1.6775454545454547,1.659336152219873,1.2753298097251586,1.323264270613108,0.8617124735729387,0.7724101479915434,0.487676532769556,0.20738900634249471,0.6845158562367865,0.8618181818181818,-0.1140887949260042,0.3023044397463002,-0.5380591966173361,-0.7018498942917548,1.1065010570824525,-0.9618477801268499,-1.616522198731501,1.401012684989429,1.2993699788583508,1.264340380549683,1.722630021141649,-5.828934460887949,-5.766492600422833,-5.5613340380549685,-3.39446088794926,-3.1942832980972513,-3.959661733615222,-3.573401691331924,-4.654909090909091,-4.539718816067653,-5.350687103594081,-5.3690824524312895,-5.0489408033826635,-4.64222621564482,-2.543665961945032,-3.0863974630021143,-4.962260042283297,-2.5737822410147992,-2.3475602536997884,-2.8167188160676533,-3.8908646934460887,-4.36493023255814
0.1875,1.7599957716701904,1.5570824524312896,1.037369978858351,0.5450866807610995,1.576940803382664,-0.43337632135306553,-0.2052367864693446,-1.3396596194503172,-0.9794016913319239,-2.1620676532769556,-2.256989429175476,-1.560183932346723,-1.5091945031712475,-2.3555940803382662,-2.1608266384778014,-2.3767632135306553,-2.4096596194503173,-1.1542917547568712,-0.5945813953488371,1.5464439746300211,1.5014038054968288,1.2113361522198731,1.1570761099365752,0.7749513742071882,0.5143107822410148,0.2440591966173361,-0.07855391120507398,0.6122135306553911,0.767862579281184,-0.14093446088794925,0.11336575052854124,-0.647477801268499,-0.9970739957716701,1.014627906976744,-1.1641818181818182,-1.8281014799154334,1.2585898520084566,1.1393784355179706,1.031048625792812,1.5843044397463002,-5.029904862579281,-4.940653276955603,-4.784999999999999,-2.829803382663848,-2.5893572938689218,-3.2907420718816067,-2.8652389006342496,-3.9012832980972516,-3.668443974630021,-4.672456659619451,-4.648556025369978,-4.2478879492600425,-3.7316955602537,-2.151418604651163,-2.560966173361522,-4.1477420718816065,-2.1102389006342497,-2.371348837209302,-2.7898604651162793,-3.6472198731501058,-4.004665961945032
0.19140625,1.5380634249471459,1.338200845665962,0.7751733615221987,0.35617547568710356,1.3601374207188162,-0.2888498942917548,-0.10099154334038055,-1.100169133192389,-1.0898710359408035,-2.0577970401691332,-2.2022325581395346,-1.2928076109936577,-1.2407653276955601,-1.9674355179704017,-1.7809323467230442,-1.8606109936575053,-2.097894291754757,-0.9281712473572938,-0.7391289640591965,1.3926194503171245,1.2897780126849896,1.1101522198731502,0.9144693446088794,0.6665898520084567,0.24798520084566592,0.023145877378435455,-0.4357167019027484,0.5492706131078224,0.6253784355179703,-0.165708245243129,-0.06107188160676529,-0.7300570824524313,-1.1426448202959831,0.8752727272727273,-1.2705306553911206,-1.9158583509513742,1.063448202959831,0.928799154334038,0.7647103594080339,1.389181818181818,-4.065735729386891,-3.987830866807611,-3.8569598308668076,-2.198014799154334,-1.9183509513742072,-2.5825665961945035,-2.109596194503171,-3.058964059196617,-2.766228329809725,-3.80846088794926,-3.8227124735729388,-3.3064249471458775,-2.700424947145877,-1.2150803382663846,-1.4346955602536997,-3.2382854122621567,-1.5187801268498944,-2.3661479915433405,-2.7599556025369982,-3.3261923890063425,-3.6010211416490483
0.1953125,1.2469450317124735,1.066708245243129,0.43453065539112046,0.12080549682875265,1.0576680761099366,0.7155665961945031,0.7816638477801269,-0.9091902748414376,-1.003137420718816,-1.9225729386892176,-2.0401902748414376,-0.970725158562368,-0.9083974630021142,-1.5173234672304439,-1.3339408033826639,-1.3970993657505284,-1.601384778012685,-0.6597970401691332,-0.8898393234672305,1.1686131078224102,1.0130993657505285,0.9263953488372093,0.6925306553911206,0.4549513742071882,0.02708668076109939,-0.14305073995771667,-0.749553911205074,0.4037293868921776,0.453,-0.22251797040169133,-0.22830866807610994,-0.8136659619450317,-1.0425158562367864,0.6832579281183933,-1.2973424947145877,-1.9365644820295984,0.7888583509513742,0.683122621564482,0.47565750528541223,1.1073467230443974,-2.998327695560254,-2.985473572938689,-2.8927970401691327,-1.456828752642706,-1.1492832980972516,-1.7474587737843552,-1.277568710359408,-2.112325581395349,-1.8650253699788584,-2.79161310782241,-2.9472980972515854,-2.263828752642706,-1.6257864693446087,0.6812811839323467,0.6639873150105708,-2.230799154334038,-0.9024566596194503,-2.3021543340380553,-2.720708245243129,-2.8946701902748417,-3.164380549682875
0.19921875,0.922786469344609,0.7570105708245244,0.12278646934460886,-0.11559408033826638,0.7108202959830867,-0.02664904862579281,-0.08959196617336153,-0.7522642706131079,-0.9071649048625793,-1.784213530655391,-1.8615813953488372,-0.6001310782241015,-0.4913192389006343,-1.0290866807610994,-0.8487780126849894,-0.7477928118393236,-1.2060063424947147,-0.3531966173361522,-0.9868668076109937,0.8733911205073996,0.7292367864693446,0.7065243128964058,0.470600422832981,0.23199154334038055,-0.14222198731501054,-0.3464291754756871,-0.9312219873150106,0.25301268498942914,0.24552219873150108,-0.28237420718816064,-0.3005560253699789,-0.8828329809725158,-0.8587589852008456,0.4200401691331924,-1.3159344608879493,-1.9365158562367863,0.43064904862579284,0.3816680761099366,0.17109513742071877,0.7945835095137421,-2.005247357293869,-2.0718604651162793,-1.983357293868922,-0.6206448202959831,-0.3379006342494715,-0.8059725158562367,-0.3990507399577167,-1.0583446088794926,-0.961752642706131,-1.7221479915433404,-2.079126849894292,-1.1829534883720931,-0.6213657505285413,0.8484862579281184,0.41310359408033825,-1.2459365750528542,-0.24696828752642708,-2.204095137420719,-2.5989090909090913,-2.4084503171247356,-2.7535264270613107
0.203125,0.5553150105708246,0.43703594080338265,-0.10021353065539113,-0.3509661733615222,0.3546849894291755,0.01570190274841437,-0.05970190274841437,-0.6872093023255814,-0.7873890063424948,-1.586031712473573,-1.725291754756871,-0.19446088794926003,-0.08459619450317124,-0.5346088794926004,-0.35534249471458773,-0.4164143763213531,-0.929338266384778,-0.057966173361522204,-0.9507484143763214,0.568860465116279,0.42365750528541224,0.4298689217758985,0.2847484143763213,-0.03950739957716702,-0.3115158562367865,-0.6044904862579281,-1.0148245243128964,0.08886892177589853,0.06795137420718815,-0.3907653276955602,-0.2850845665961945,-0.9385581395348837,-0.8143699788583509,0.17638054968287525,-1.334507399577167,-1.9633488372093022,0.0641860465116279,0.06786469344608877,-0.08694503171247359,0.424,-1.1907864693446089,-1.3203488372093022,-1.2431902748414376,0.17733826638477798,0.40125158562367863,0.11795348837209307,0.44535729386892176,-0.04874418604651163,-0.11525158562367861,-0.7930676532769556,-1.351338266384778,-0.21364482029598308,0.24267230443974627,1.7104397463002114,1.162568710359408,-0.37984355179704016,0.33423255813953484,-2.078154334038055,-2.5008414376321353,-1.9212198731501056,-2.4335116279069764
0.20703125,0.20226427061310778,0.11597251585623677,-0.21996828752642705,-0.5553699788583509,0.008864693446088779,-0.05038900634249472,-0.09479492600422833,-0.6572938689217759,-0.736816067653277,-1.3506723044397462,-1.6613128964059198,0.1699492600422833,0.2457463002114165,-0.07109302325581397,0.06172727272727272,-0.29356871035940807,-0.7631331923890063,0.20838900634249471,-0.8454249471458775,0.23127484143763216,0.1366997885835095,0.17797040169133194,0.06078012684989429,-0.26042494714587733,-0.4797928118393235,-0.8646532769556026,-1.0932832980972518,-0.06906342494714587,-0.08997885835095137,-0.49916279069767444,-0.3480676532769556,-1.0067209302325582,-1.0445813953488372,-0.06926849894291755,-1.4016194503171246,-2.0779767441860466,-0.23933403805496825,-0.21191754756871037,-0.3388372093023256,0.06473995771670189,-0.6168202959830866,-0.711276955602537,-0.7022473572938689,0.852446088794926,1.0144291754756871,0.9417272727272727,1.1483784355179705,0.799830866807611,0.6341923890063426,-0.07871670190274838,-0.7784164904862578,0.5822875264270614,0.9477441860465117,1.6320063424947144,1.1966405919661733,0.3375983086680761,0.8555200845665962,-1.9346405919661733,-2.4801881606765326,-1.5010591966173361,-2.186767441860465
0.2109375,-0.07235940803382664,-0.17410993657505286,-0.28292389006342494,-0.7876384778012685,-0.29978224101479917,0.5617716701902749,0.41310993657505285,-0.5468393234672305,-0.6428900634249471,-1.1617505285412264,-1.645828752642706,0.49616279069767444,0.5285792811839324,0.3345708245243129,0.3848329809725159,-0.07471881606765327,-0.5463530655391121,0.41585200845665965,-0.7814524312896406,-0.029862579281183934,-0.18439746300211415,-0.0057589852008456555,-0.18079915433403806,-0.4317864693446089,-0.7750253699788583,-1.0690338266384778,-1.276012684989429,-0.21979915433403804,-0.23449048625792812,-0.5693192389006343,-0.5761902748414377,-1.0954693446088797,-1.4203086680761101,-0.29020507399577167,-1.5347547568710358,-2.325706131078224,-0.4127484143763213,-0.44519450317124737,-0.6144587737843552,-0.27279492600422833,-0.17188583509513736,-0.20440803382663844,-0.23669767441860462,1.4006046511627908,1.4831141649048627,1.5796955602537,1.747093023255814,1.4677505285412262,1.2639196617336153,0.4570443974630021,-0.34073572938689217,1.181044397463002,1.5279069767441862,2.425860465116279,2.268173361522199,0.9074291754756871,1.2963488372093024,-1.799431289640592,-2.539014799154334,-1.1975665961945032,-1.983397463002114
0.21484375,-0.339708245243129,-0.5137420718816068,-0.463615221987315,-1.080801268498943,-0.6249598308668076,0.21077589852008458,0.09722198731501058,-0.3444904862579281,-0.7388921775898519,-0.9893424947145878,-1.6912262156448203,0.7810887949260042,0.7422769556025369,0.6628689217758985,0.6088266384778013,0.26490063424947147,-0.5164249471458774,0.6336701902748414,-0.8991226215644821,-0.27044186046511626,-0.5529090909090909,-0.1709408033826638,-0.4739704016913319,-0.5360486257928118,-1.0950338266384778,-1.2073890063424948,-1.5578583509513744,-0.338507399577167,-0.41206765327695566,-0.5941057082452431,-0.895169133192389,-1.1047716701902748,-1.779551797040169,-0.5338202959830867,-1.679293868921776,-2.665321353065539,-0.549031712473573,-0.7218731501057083,-0.9685433403805497,-0.625877378435518,0.2431141649048625,0.3044989429175476,0.21032980972515858,1.9043551797040168,1.8950169133192387,2.0978964059196614,2.1971733615221987,1.9983403805496829,1.754247357293869,0.9081649048625793,0.00815644820295985,1.6971733615221989,2.075044397463002,2.242093023255814,1.5806575052854124,1.4194820295983086,1.6948224101479914,-1.6961902748414377,-2.6401818181818184,-0.965306553911205,-1.7996321353065539
0.21875,-0.5916109936575052,-0.8843551797040169,-0.7051501057082452,-1.4616976744186048,-0.9150697674418604,0.23349894291754758,0.1344186046511628,-0.15252642706131078,-0.6759027484143764,-0.870630021141649,-1.7335750528541225,1.1258816067653277,0.97246088794926,0.9612219873150106,0.7657399577167019,0.4744524312896406,-0.35331501057082454,0.8205137420718817,-1.2015792811839323,-0.5130211416490487,-0.9121310782241014,-0.3092389006342494,-0.8084714587737843,-0.6320613107822409,-1.435704016913319,-1.2951416490486258,-1.9108837209302325,-0.45619873150105705,-0.6288054968287526,-0.5992811839323466,-1.1708160676532768,-1.1243953488372094,-1.8539006342494715,-0.7567906976744185,-1.7546659619450318,-2.9182410147991544,-0.7565116279069767,-1.0109281183932346,-1.3216025369978857,-0.9376215644820296,0.6529725158562367,0.7442579281183932,0.6108372093023255,2.374071881606765,2.2759133192389007,2.5924038054968284,2.560589852008457,2.443251585623679,2.1155792811839325,1.2808668076109937,0.33026427061310787,2.190630021141649,2.5013932346723045,2.347401691331924,1.9760190274841438,1.8520126849894292,2.0478414376321354,-1.6363002114164906,-2.7300042283298094,-0.8083784355179704,-1.6014693446088795
0.22265625,-0.9126596194503171,-1.283862579281184,-1.029291754756871,-1.8973467230443977,-1.2722177589852008,0.2685729386892178,-0.010133192389006347,0.011634249471458781,-0.6015983086680761,-0.7849619450317125,-1.7149978858350952,1.3096363636363635,1.105627906976744,1.2440528541226217,0.9422854122621565,0.6984947145877378,-0.1912410147991543,0.9960190274841438,-1.685739957716702,-0.7782980972515856,-1.2538541226215645,-0.4661564482029598,-1.143938689217759,-0.7889725158562368,-1.7174989429175476,-1.4014270613107822,-2.2680401691331924,-0.5563255813953488,-0.860076109936575,-0.6044249471458774,-1.2636871035940804,-1.140923890063425,-1.7661479915433405,-0.9725792811839323,-1.794894291754757,-2.994615221987315,-1.06930866807611,-1.4072980972515856,-1.6591649048625792,-1.2638097251585625,0.962615221987315,1.067384778012685,0.8947336152219874,2.8200190274841437,2.610374207188161,3.0476109936575053,2.8692177589852013,2.8489323467230445,2.396348837209302,1.589479915433404,0.5852452431289641,2.620080338266385,2.7935137420718816,2.3887145877378435,1.984262156448203,2.1885285412262157,2.3461902748414376,-1.6301162790697674,-2.740315010570824,-0.6524968287526428,-1.4032473572938688
0.2265625,-1.2460866807610993,-1.6162431289640593,-1.3379577167019026,-2.2783023255813952,-1.6139260042283299,0.48126215644820297,0.37184989429175475,0.13551162790697677,-0.45807399577167024,-0.7292241014799155,-1.6602642706131079,1.5398477801268498,1.2790591966173361,1.4918054968287526,1.1301627906976743,0.8750084566596195,0.07716490486257929,1.1684397463002114,-2.106919661733615,-1.0270887949260041,-1.4695898520084567,-0.7015369978858351,-1.3731141649048624,-0.9799365750528541,-1.9374228329809724,-1.5222050739957718,-2.580856236786469,-0.6812177589852009,-0.9973826638477802,-0.6725771670190274,-1.1842198731501057,-1.163630021141649,-1.6484503171247358,-1.14907399577167,-1.8537589852008456,-2.9688202959830865,-1.4460676532769556,-1.8305581395348838,-1.9616194503171247,-1.536355179704017,1.0338710359408034,1.1437928118393235,0.9391353065539112,3.155490486257928,2.865367864693446,3.4347632135306556,3.1252219873150104,3.2081797040169135,2.6327293868921773,1.7226575052854123,0.8082262156448203,2.9039598308668078,2.895693446088795,2.2338393234672305,1.8211818181818182,2.3567949260042282,2.5805306553911205,-1.655940803382664,-2.7000613107822407,-0.5626871035940804,-1.2814355179704018
0.23046875,-1.5423699788583511,-1.8949894291754759,-1.5970718816067653,-2.5631881606765328,-1.9091754756871036,0.4027970401691332,0.3201818181818182,0.1375919661733615,-0.28776532769556024,-0.6662494714587739,-1.5911331923890064,1.6998372093023257,1.4411479915433405,1.7044651162790698,1.3572515856236786,0.9348794926004228,0.30114376321353065,1.2892114164904862,-2.440355179704017,-1.2696828752642706,-1.6451141649048626,-0.9544291754756871,-1.542399577167019,-1.1977653276955602,-2.091217758985201,-1.6987589852008458,-2.8007251585623676,-0.7824249471458774,-1.0655116279069767,-0.7799513742071882,-1.1037293868921776,-1.2245517970401691,-1.7991818181818182,-1.2585031712473573,-1.9889915433403806,-2.9739767441860465,-1.7898350951374207,-2.187729386892178,-2.251735729386892,-1.783105708245243,0.9337188160676533,1.000262156448203,0.7770084566596194,3.382636363636364,3.0067822410147995,3.6783742071881607,3.2893763213530653,3.40330866807611,2.7906997885835096,1.6865243128964058,0.9228372093023255,3.025748414376321,2.8802241014799153,1.7620845665961946,1.5579429175475688,2.3764038054968286,2.710600422832981,-1.687923890063425,-2.635035940803383,-0.5255243128964059,-1.2225898520084566
0.234375,-1.7880126849894291,-2.0869534883720933,-1.8427547568710358,-2.693279069767442,-2.1404059196617338,0.3831501057082452,0.09928964059196617,0.16338477801268497,-0.15563424947145874,-0.6270232558139535,-1.4879450317124736,1.8216215644820295,1.5794566596194501,1.8448668076109935,1.5523763213530655,0.9369704016913319,0.4333192389006343,1.3872832980972514,-2.63546511627907,-1.5112410147991544,-1.8061205073995772,-1.2083594080338267,-1.6766067653276955,-1.3711902748414375,-2.242968287526427,-1.9145095137420718,-2.9607463002114165,-0.9021395348837209,-1.1254101479915433,-0.8563023255813954,-1.1346913319238903,-1.336029598308668,-2.138811839323467,-1.3803086680761099,-2.1789450317124737,-3.113340380549683,-2.0489661733615225,-2.478832980972516,-2.5438456659619453,-1.9926553911205074,0.7107251585623678,0.7628520084566598,0.5323868921775898,3.470397463002114,3.0625285412262158,3.7558012684989426,3.3636913319238904,3.4621606765327697,2.8990866807610995,1.5709302325581394,1.0002346723044397,2.996860465116279,2.8616236786469345,1.6485158562367865,1.4980845665961946,2.290723044397463,2.8138245243128965,-1.764295983086681,-2.627801268498943,-0.557536997885835,-1.1967780126849894
0.23828125,-2.012063424947146,-2.2614334038054964,-2.084340380549683,-2.7438541226215647,-2.341689217758985,0.4027716701902748,0.09825581395348837,0.21809302325581398,-0.10711627906976744,-0.5526807610993658,-1.390877378435518,1.8980232558139534,1.6703171247357294,1.9532515856236787,1.671088794926004,0.9937526427061311,0.42193657505285415,1.4419809725158563,-2.7779217758985197,-1.6898329809725157,-1.995033826638478,-1.3921458773784356,-1.7901797040169134,-1.5043678646934462,-2.394693446088795,-2.1942663847780124,-3.0970169133192393,-1.017754756871036,-1.1935031712473574,-0.9254778012684989,-1.2090105708245242,-1.4062262156448202,-2.5042346723044395,-1.5041797040169134,-2.3317293868921776,-3.2176046511627905,-2.1645750528541225,-2.6347145877378435,-2.7420274841437635,-2.191904862579281,0.5507484143763214,0.5337145877378435,0.36516490486257924,3.502397463002114,3.0842050739957716,3.7774820295983087,3.391581395348837,3.4497568710359405,2.958955602536998,1.463556025369979,1.0374038054968289,2.892587737843552,2.828615221987315,1.549431289640592,0.8683678646934461,2.1947145877378436,2.9191310782241016,-1.7870359408033827,-2.637084566596194,-0.5885031712473572,-1.1719746300211418
0.2421875,-2.1689471458773784,-2.3842854122621566,-2.262898520084567,-2.7738076109936576,-2.4996659619450314,0.6195835095137421,0.10443974630021143,0.32961522198731497,-0.09367653276955604,-0.4432663847780127,-1.2876384778012684,1.9744312896405918,1.7343044397463003,2.0595602536997886,1.7237293868921775,1.0587653276955602,0.5117568710359408,1.4966807610993655,-2.941029598308668,-1.8725813953488373,-2.1550295983086682,-1.495384778012685,-1.9089006342494714,-1.6086109936575055,-2.513443974630021,-2.4378900634249474,-3.145509513742072,-1.0920866807610994,-1.2905348837209303,-0.8924693446088796,-1.261663847780127,-1.451676532769556,-2.654970401691332,-1.6218858350951375,-2.368890063424947,-3.219680761099366,-2.2812156448202963,-2.734873150105708,-2.8360042283298097,-2.400403805496829,0.5197758985200845,0.4149598308668077,0.29495137420718814,3.5292198731501054,3.0780021141649048,3.806397463002114,3.3895306553911206,3.44976532769556,2.9754820295983087,1.441875264270613,1.0673530655391121,2.8605771670190276,2.7872938689217763,1.6082579281183933,0.5978964059196618,2.1410549682875266,2.9552621564482027,-1.7787653276955602,-2.6381395348837207,-0.6039957716701903,-1.137940803382664
0.24609375,-2.3124566596194502,-2.504027484143763,-2.3702600422832982,-2.8037209302325583,-2.6245581395348836,0.5277019027484144,0.07965116279069766,0.4637906976744186,-0.06582875264270611,-0.3255792811839323,-1.2153805496828753,2.0425750528541227,1.7673636363636362,2.1576553911205076,1.7505961945031714,1.107262156448203,0.5241522198731501,1.518369978858351,-3.1299323467230447,-2.009866807610994,-2.2489788583509513,-1.556291754756871,-1.9904249471458775,-1.6943044397463,-2.5279027484143763,-2.6608583509513744,-3.0918350951374203,-1.1560824524312896,-1.414446088794926,-0.8532262156448204,-1.1986807610993657,-1.4227420718816068,-2.4681162790697675,-1.7478372093023256,-2.3286173361522198,-3.115412262156448,-2.391674418604651,-2.8587441860465113,-2.8535412262156448,-2.5470211416490485,0.5290676532769557,0.3148477801268499,0.22784778012684986,3.535412262156448,3.055306553911205,3.864158562367865,3.3637145877378436,3.487966173361522,2.923864693446089,1.4635602536997887,1.009541226215645,2.8388964059196615,2.663446088794926,1.0621627906976743,0.5699873150105708,2.0780697674418604,2.9304735729386895,-1.717860465116279,-2.563780126849894,-0.5348245243128964,-1.0584587737843552
0.25,-2.434276955602537,-2.62169133192389,-2.3578794926004227,-2.8573784355179703,-2.7102642706131075,0.5287336152219874,0.055932346723044375,0.4348731501057082,0.008517970401691345,-0.23472515856236786,-1.1080126849894292,2.0745729386892178,1.7621945031712474,2.2082367864693446,1.7712198731501059,1.0948858350951374,0.5757463002114166,1.4987441860465116,-3.272393234672305,-2.1213467230443976,-2.2592980972515853,-1.6429894291754756,-2.0182917547568713,-1.7872114164904862,-2.4360211416490487,-2.7186680761099367,-2.995841437632135,-1.1798583509513743,-1.4412811839323467,-0.8717970401691332,-1.0902811839323467,-1.3742367864693446,-2.0964841437632136,-1.7767357293868922,-2.272892177589852,-2.998758985200846,-2.5537463002114165,-2.954710359408034,-2.8607632135306558,-2.6244270613107825,0.45679069767441866,0.14452008456659618,0.06373361522198731,3.5085792811839323,2.9788985200845666,3.85900422832981,3.3028181818181817,3.492059196617336,2.8763615221987315,1.3943932346723045,0.9331437632135307,2.752198731501057,2.400188160676533,0.3983974630021142,0.016723044397463013,1.9036342494714587,2.7973107822410146,-1.6393932346723044,-2.4295961945031714,-0.4914714587737843,-0.9727885835095138
0.25390625,-2.485873150105708,-2.6464989429175474,-2.3021289640591966,-2.9235095137420717,-2.749458773784355,0.3904016913319239,0.13544397463002114,0.3822325581395349,0.08907188160676534,-0.2378541226215645,-1.0254059196617336,2.046723044397463,1.7229725158562368,2.1968985200845665,1.735093023255814,0.9617019027484144,0.7089323467230444,1.4522875264270614,-3.3178308668076113,-2.1719365750528543,-2.2056511627906974,-1.7503699788583509,-1.962570824524313,-1.8822050739957716,-2.318338266384778,-2.6402050739957716,-2.8853932346723044,-1.1901754756871035,-1.3917124735729387,-0.9203276955602537,-1.0448477801268499,-1.3866215644820294,-1.7248668076109936,-1.7498794926004229,-2.2739133192389005,-2.925467230443975,-2.6445813953488373,-2.9898372093023253,-2.915431289640592,-2.6378689217758984,0.14195771670190277,-0.1982177589852008,-0.29138477801268503,3.3784904862579284,2.7858858350951374,3.7403213530655393,3.1593234672304438,3.3537315010570827,2.7380528541226212,1.1806997885835095,0.7886131078224101,2.5106194503171246,2.036830866807611,-0.4470443974630021,-0.440600422832981,1.6166490486257927,2.6321501057082455,-1.6166976744186046,-2.2448287526427064,-0.4966321353065539,-0.9459133192389005
0.2578125,-2.510682875264271,-2.6371775898520085,-2.2556892177589853,-2.9472410147991543,-2.763923890063425,0.4379027484143764,0.21696828752642708,0.3884291754756871,0.07045243128964061,-0.2946279069767442,-0.9304545454545454,1.9517357293868922,1.665181818181818,2.092649048625793,1.6886723044397463,0.9885433403805497,0.8720528541226216,1.3480211416490486,-3.28685200845666,-2.1636723044397463,-2.135422832980973,-1.832953488372093,-1.9047568710359408,-1.9348202959830867,-2.2605137420718817,-2.481215644820296,-2.796596194503171,-1.1787949260042285,-1.2761183932346725,-0.9915327695560254,-1.1006067653276956,-1.4382241014799153,-1.5411183932346721,-1.677632135306554,-2.282183932346723,-2.8542558139534884,-2.684845665961945,-2.987737843551797,-2.965016913319239,-2.5635200845665964,-0.3174291754756871,-0.6472875264270613,-0.758,3.1679302325581395,2.530887949260042,3.4863446088794925,2.962143763213531,3.087405919661734,2.548107822410148,0.8689809725158563,0.6709365750528541,2.131771670190275,1.6610718816067653,-0.48937209302325585,-0.3260042283298097,1.2099175475687105,2.4102029598308667,-1.6414820295983088,-2.053837209302326,-0.5812706131078225,-0.9335539112050739
0.26171875,-2.473484143763214,-2.6340845665961945,-2.246384778012685,-2.924528541226216,-2.7567040169133192,0.37284355179704015,-0.06483086680761099,0.2748625792811839,0.019879492600422863,-0.4050676532769556,-0.8612790697674418,1.8381818181818184,1.5464270613107822,1.966661733615222,1.581260042283298,0.794492600422833,0.7770718816067653,1.2386109936575054,-3.2703298097251587,-2.111029598308668,-2.1426617336152223,-1.8329513742071881,-1.85830866807611,-1.9007632135306554,-2.2842494714587738,-2.3666553911205073,-2.806955602536998,-1.1406131078224102,-1.2048837209302325,-1.0122093023255814,-1.1222854122621564,-1.4991437632135307,-1.5627864693446087,-1.5785348837209303,-2.2883657505285413,-2.760289640591966,-2.6414883720930233,-2.954750528541226,-2.9671035940803385,-2.4633995771670194,-0.831507399577167,-1.1025221987315013,-1.2173720930232559,2.889194503171247,2.2625095137420717,3.161169133192389,2.7484397463002113,2.7550063424947147,2.3746849894291757,0.5303424947145877,0.5305391120507399,1.7054186046511628,1.300801268498943,-0.6958583509513742,-0.6191797040169134,0.7794630021141649,2.191321353065539,-1.7498837209302327,-1.9908520084566597,-0.7474820295983087,-0.9190951374207188
0.265625,-2.455942917547569,-2.6227188160676533,-2.3196786469344612,-2.8584418604651165,-2.749482029598309,0.3955771670190275,0.06524947145877381,0.33165961945031713,0.0477167019027484,-0.4660042283298097,-0.8571289640591966,1.7318520084566595,1.439090909090909,1.8490042283298096,1.4863255813953489,0.7057293868921776,0.6005644820295983,1.1446680761099366,-3.3425940803382663,-2.029490486257928,-2.1467801268498943,-1.7576025369978858,-1.8583107822410148,-1.8481183932346723,-2.3988245243128965,-2.3233002114164907,-2.876105708245243,-1.0828012684989428,-1.158401691331924,-0.9450739957716702,-1.1088646934460886,-1.531137420718816,-1.7114524312896404,-1.5392875264270613,-2.341031712473573,-2.7179767441860467,-2.5795729386892177,-2.9237632135306555,-2.937114164904863,-2.4066194503171245,-1.2351479915433403,-1.4596997885835095,-1.5838393234672303,2.600145877378435,2.0250613107822413,2.8896786469344606,2.5564503171247357,2.461835095137421,2.20538266384778,0.2381945031712474,0.42936363636363634,1.312107822410148,1.015877378435518,-0.8630824524312897,-0.8390993657505286,0.41400634249471463,1.9797145877378435,-1.8737653276955601,-2.006367864693446,-0.9343276955602537,-0.9479957716701902
0.26953125,-2.403291754756871,-2.6279112050739957,-2.379570824524313,-2.7996067653276953,-2.7505095137420716,-1.2272262156448202,-1.4399048625792812,0.38428118393234667,0.08488372093023257,-0.5011014799154334,-0.8520105708245242,1.6368858350951374,1.3544460887949261,1.7385327695560253,1.4408879492600422,0.4703488372093023,0.10088160676532765,1.0827145877378437,-3.5490634249471458,-1.9551501057082452,-2.1550338266384776,-1.6481585623678645,-1.9284968287526427,-1.7541649048625794,-2.5031035940803386,-2.398661733615222,-2.99277378435518,-1.0405010570824524,-1.1883530655391121,-0.8821247357293869,-1.0490105708245243,-1.5404376321353064,-1.8631585623678646,-1.5031733615221987,-2.3977758985200843,-2.815002114164905,-2.5558393234672305,-2.9526913319238903,-2.9454186046511626,-2.3612114164904865,-1.5396807610993657,-1.7167315010570825,-1.8605116279069769,2.3988477801268497,1.852634249471459,2.6563742071881604,2.4522093023255813,2.2585010570824524,2.064997885835095,-0.00850317124735722,0.2848498942917547,0.9982938689217759,0.7629154334038054,-3.410788583509514,-3.598429175475687,0.11050105708245245,1.787723044397463,-1.9769915433403804,-2.1705010570824523,-1.079877378435518,-1.0140570824524313
0.2734375,-2.3929746300211416,-2.660938689217759,-2.449767441860465,-2.843987315010571,-2.7556659619450317,0.2593107822410148,0.12610570824524314,0.07769978858350951,-0.06270190274841439,-0.5258752642706132,-0.8736892177589852,1.5511923890063426,1.3193065539112052,1.6415031712473573,1.422289640591966,0.4321649048625793,0.4663509513742072,1.014583509513742,-3.923778012684989,-1.9355327695560252,-2.1106511627906976,-1.561446088794926,-1.951213530655391,-1.7490021141649048,-2.5691818181818182,-2.504953488372093,-3.1093805496828755,-0.9795750528541226,-1.2182980972515856,-0.8501458773784355,-1.0200866807610993,-1.5146215644820296,-1.923090909090909,-1.4918076109936576,-2.4586997885835093,-2.9894545454545454,-2.630141649048626,-2.9815940803382666,-2.9794693446088796,-2.339473572938689,-1.7843150105708245,-1.9294016913319239,-2.1010063424947143,2.2181902748414375,1.692649048625793,2.473659619450317,2.3644080338266384,2.0922832980972514,1.956598308668076,-0.24385835095137418,0.1382748414376322,0.7350824524312897,0.5276025369978858,-1.7601479915433405,-1.3418054968287525,-0.17130866807610992,1.6039725158562368,-2.0461331923890063,-2.3480422832980974,-1.1955137420718815,-1.1100845665961945
0.27734375,-2.4177610993657503,-2.692936575052854,-2.49722621564482,-2.9647463002114165,-2.7484186046511625,0.15300422832980973,-0.0834186046511628,-0.019331923890063427,-0.22274630021141648,-0.598124735729387,-0.8932854122621564,1.4706638477801268,1.2914460887949262,1.545475687103594,1.4470570824524311,0.2979429175475687,0.2526342494714588,0.9722980972515856,-4.219,-1.9406976744186049,-2.085894291754757,-1.5593742071881607,-1.985276955602537,-1.7768498942917548,-2.639369978858351,-2.600989429175476,-3.2260697674418606,-0.9702896405919662,-1.1893805496828753,-0.8924418604651163,-1.0644841437632135,-1.5321585623678646,-1.9003340380549685,-1.4670253699788585,-2.4607610993657505,-3.1319408033826637,-2.7024186046511627,-3.0517885835095138,-3.0207568710359407,-2.3116511627906977,-2.0537674418604652,-2.1307293868921775,-2.3590972515856237,2.027247357293869,1.5904735729386892,2.271340380549683,2.2828773784355176,1.8806469344608878,1.861583509513742,-0.4658266384778013,0.018524312896405923,0.4707864693446088,0.33764693446088795,-1.8809344608879492,-1.7774228329809725,-0.4097885835095137,1.4295137420718815,-2.0833128964059195,-2.4801860465116277,-1.321416490486258,-1.2349957716701903
0.28125,-2.4631712473572938,-2.6887885835095138,-2.502401691331924,-3.1268393234672303,-2.762887949260042,0.19634249471458776,0.041484143763213514,-0.1421923890063425,-0.35589217758985203,-0.7281754756871036,-0.9593657505285413,1.3932579281183932,1.2769957716701903,1.4237040169133193,1.396492600422833,-0.00967653276955603,0.04824947145877376,0.9010803382663848,-4.365610993657506,-1.945845665961945,-2.0931162790697675,-1.615139534883721,-1.9738985200845667,-1.8594693446088795,-2.6754989429175473,-2.6381374207188157,-3.2952198731501054,-0.9795856236786469,-1.170813953488372,-0.9843276955602537,-1.1935327695560252,-1.5775644820295982,-1.9230697674418604,-1.4536025369978858,-2.4401310782241015,-3.098894291754757,-2.7292346723044396,-3.077587737843552,-3.022828752642706,-2.295124735729387,-2.3603890063424946,-2.342350951374207,-2.630600422832981,1.844492600422833,1.4304524312896407,2.0545729386892178,2.1786215644820297,1.6783171247357296,1.7356680761099366,-0.6413361522198732,-0.11878646934460885,0.187953488372093,0.15905496828752638,-2.4724249471458775,-1.8073805496828752,-0.6513615221987314,1.3117970401691332,-2.1442114164904864,-2.5173361522198734,-1.4566828752642706,-1.3010549682875265
0.28515625,-2.508619450317125,-2.71154334038055,-2.537479915433404,-3.2548541226215644,-2.81553911205074,0.8642579281183932,0.7145539112050739,-0.15456659619450316,-0.4250528541226216,-0.8727167019027484,-1.1482642706131079,1.3292346723044397,1.2511945031712473,1.3101289640591967,1.275708245243129,-0.2605327695560254,-0.24283086680761096,0.8742262156448203,-4.385238900634249,-1.9788837209302323,-2.1725940803382664,-1.6976828752642708,-2.025524312896406,-1.9915771670190274,-2.734350951374207,-2.6660190274841438,-3.3303171247357293,-0.9878054968287526,-1.183186046511628,-1.0700126849894291,-1.3442579281183933,-1.67253911205074,-2.0200972515856237,-1.4814862579281185,-2.5010253699788585,-3.0566025369978855,-2.7240866807610993,-3.0920338266384775,-3.0630718816067657,-2.296135306553911,-2.6896828752642707,-2.5962790697674416,-2.911384778012685,1.6917040169133193,1.296264270613108,1.8336257928118391,2.0196257928118393,1.4336744186046513,1.5467568710359407,-0.798247357293869,-0.24678435517970398,-0.06288794926004236,-0.030868921775898516,-1.790093023255814,-1.2055369978858352,-0.8949640591966174,1.1961966173361522,-2.2350486257928117,-2.5090697674418605,-1.591892177589852,-1.3712621564482028
0.2890625,-2.6025158562367863,-2.79307399577167,-2.59531289640592,-3.368405919661734,-2.8970845665961944,0.01670824524312895,-0.0700169133192389,-0.3827209302325581,-0.6387357293868922,-1.056463002114165,-1.4259492600422834,1.2611014799154334,1.1830570824524314,1.1759281183932346,1.0496553911205073,-0.3585940803382664,-0.3832198731501057,0.8752684989429176,-4.35216490486258,-2.0397928118393236,-2.2531289640591967,-1.807124735729387,-2.072,-2.1371691331923888,-2.8427272727272723,-2.744492600422833,-3.418061310782241,-1.011551797040169,-1.2172558139534886,-1.1412410147991543,-1.427845665961945,-1.8294418604651164,-2.215215644820296,-1.5072959830866808,-2.73946088794926,-3.2310338266384777,-2.765389006342495,-3.1560486257928115,-3.2200190274841436,-2.347767441860465,-3.0014207188160675,-2.879139534883721,-3.235522198731501,1.555458773784355,1.1548245243128963,1.6581416490486258,1.8544989429175476,1.2065581395348837,1.2628858350951375,-0.9933340380549682,-0.4553107822410148,-0.2982663847780127,-0.272431289640592,-2.5137251585623677,-1.9581014799154335,-1.1303424947145877,1.1270401691331924,-2.432228329809725,-2.5637843551797044,-1.8179767441860466,-1.4920211416490485
0.29296875,-2.682027484143763,-2.895274841437632,-2.7057420718816068,-3.461276955602537,-2.99822198731501,0.04561099365750529,0.02806131078224101,-0.48902748414376324,-0.6593572938689217,-1.2639619450317126,-1.6933467230443975,1.2002093023255813,1.105646934460888,1.0458541226215645,0.821522198731501,-0.557830866807611,-0.5742473572938689,0.8762748414376321,-4.429589852008457,-2.0852198731501055,-2.31608245243129,-1.8701289640591967,-2.1927610993657503,-2.2744566596194504,-2.9717822410147994,-2.865245243128964,-3.5471014799154332,-1.0518118393234672,-1.2616490486257927,-1.2279492600422834,-1.4680993657505286,-2.0018562367864696,-2.4629365750528542,-1.5279344608879493,-3.0749471458773785,-3.5913002114164905,-2.876892177589852,-3.3222262156448203,-3.455399577167019,-2.3849344608879495,-3.3617145877378434,-3.2280422832980973,-3.6298668076109935,1.4171416490486257,1.0443826638477802,1.5074038054968286,1.6222093023255812,0.976353065539112,0.9779577167019027,-1.2844270613107822,-0.780492600422833,-0.5449704016913319,-0.571816067653277,-2.637604651162791,-2.2647019027484143,-1.4080063424947145,1.0166067653276956,-2.7295475687103594,-2.758911205073996,-2.108061310782241,-1.7304820295983088
0.296875,-2.7893932346723047,-3.017107822410148,-2.888505285412262,-3.568651162790698,-3.0952706131078225,0.08280761099365751,-0.08032346723044397,-0.6397632135306554,-0.6594016913319238,-1.547845665961945,-1.9173276955602536,1.126904862579281,1.0478329809725158,0.8497209302325581,0.649105708245243,-0.7942219873150105,-0.8137272727272726,0.8432346723044398,-4.6918287526427065,-2.1203150105708244,-2.294408033826638,-1.912429175475687,-2.242317124735729,-2.351873150105708,-3.0739640591966175,-3.0520739957716705,-3.7762811839323467,-1.115826638477801,-1.30707822410148,-1.3704080338266384,-1.4970063424947146,-2.2083065539112052,-2.6467167019027484,-1.5000866807610995,-3.3495835095137423,-3.958788583509514,-3.060589852008457,-3.5472917547568708,-3.6701057082452433,-2.408674418604651,-3.73437843551797,-3.610002114164905,-4.064477801268499,1.2911797040169135,0.9019027484143763,1.3226427061310781,1.3775539112050739,0.7193044397463003,0.7044207188160676,-1.665353065539112,-1.118061310782241,-0.8051395348837209,-0.8794355179704018,-2.4104968287526427,-2.2109915433403806,-1.6754059196617337,0.9174587737843551,-3.1238858350951375,-3.0572389006342497,-2.4672980972515854,-2.0566723044397466
0.30078125,-2.838938689217759,-3.0872959830866806,-3.07946088794926,-3.6512367864693447,-3.1500063424947147,0.7135010570824524,0.7517378435517971,-0.7719217758985201,-0.5633805496828752,-1.8368921775898521,-2.0639112050739956,1.0102663847780127,1.0096532769556026,0.6370549682875264,0.5355496828752643,-1.0388731501057082,-0.8013298097251585,0.8256723044397463,-5.064454545454546,-2.1306511627906977,-2.2613890063424944,-1.9165771670190277,-2.226837209302326,-2.3549852008456655,-3.097723044397463,-3.2554714587737843,-3.96207399577167,-1.1664228329809725,-1.299862579281184,-1.5097632135306553,-1.6301775898520083,-2.4385137420718817,-2.731338266384778,-1.442247357293869,-3.507507399577167,-4.115737843551797,-3.3021860465116277,-3.756828752642706,-3.8011987315010574,-2.3952536997885834,-4.049228329809726,-3.9145454545454546,-4.405120507399577,1.1518118393234673,0.8090126849894292,1.1316617336152222,1.188646934460888,0.43436575052854126,0.45046300211416496,-2.0049915433403807,-1.397801268498943,-1.0384439746300211,-1.033247357293869,-1.5836279069767443,-1.4058097251585624,-1.8808054968287526,0.8751522198731501,-3.484158562367865,-3.355585623678647,-2.8440866807610994,-2.4520951374207187
0.3046875,-2.81723044397463,-3.0893572938689218,-3.218813953488372,-3.729718816067653,-3.168558139534884,-0.1308942917547569,-0.061750528541226216,-0.8110845665961944,-0.6862325581395348,-2.119735729386892,-2.125887949260042,0.9380063424947146,0.9817885835095138,0.4801479915433404,0.48910570824524313,-0.9769577167019028,-0.8808372093023257,0.8287780126849894,-5.406162790697674,-2.0645771670190274,-2.2087484143763216,-1.8639323467230444,-2.1793467230443975,-2.3301966173361524,-3.117319238900634,-3.397936575052854,-4.0776955602537,-1.1808816067653278,-1.2699217758985202,-1.6037061310782241,-1.7643826638477802,-2.622279069767442,-2.753057082452431,-1.3978837209302324,-3.608693446088795,-4.0806194503171245,-3.4146913319238905,-3.8425306553911205,-3.785704016913319,-2.306458773784355,-4.2010000000000005,-4.033243128964059,-4.503186046511628,1.0599661733615222,0.7656427061310782,0.9706553911205074,1.0740655391120508,0.24236786469344607,0.31933615221987316,-2.1866871035940805,-1.5537019027484142,-1.1561331923890064,-1.0487272727272727,-2.2618625792811837,-2.0829915433403805,-1.9541331923890062,0.907169133192389,-3.7360274841437633,-3.54137843551797,-3.1393276955602536,-2.7246067653276955
0.30859375,-2.785247357293869,-3.040835095137421,-3.3013995771670195,-3.7214545454545456,-3.110758985200846,-0.053486257928118404,0.02494926004228329,-0.9576997885835096,-0.7605496828752643,-2.2859492600422833,-2.2001945031712475,0.9307653276955603,1.0024207188160676,0.3779429175475687,0.4859936575052854,-1.0925729386892178,-0.9407061310782241,0.8277463002114165,-5.609558139534884,-1.9902410147991543,-2.1994397463002113,-1.8422515856236785,-2.1555877378435517,-2.350864693446089,-3.10184778012685,-3.4794778012684993,-4.0766469344608876,-1.1684947145877378,-1.279200845665962,-1.627448202959831,-1.831446088794926,-2.7285898520084566,-2.74476955602537,-1.377260042283298,-3.753196617336152,-4.07338689217759,-3.463215644820296,-3.8136236786469344,-3.736126849894292,-2.229029598308668,-4.109090909090909,-3.9269302325581394,-4.368983086680761,1.084725158562368,0.7976596194503172,0.899399577167019,1.0410021141649048,0.16288794926004233,0.2956300211416491,-2.1608794926004227,-1.569169133192389,-1.1334080338266384,-0.9589090909090908,-2.210232558139535,-1.8114883720930235,-1.8560422832980974,1.0269196617336152,-3.8898541226215646,-3.6260295983086683,-3.293141649048626,-2.822659619450317
0.3125,-2.7563446088794925,-3.004678646934461,-3.3416553911205074,-3.7513953488372094,-3.0798012684989433,-0.09891966173361523,0.012553911205073992,-1.1641585623678647,-0.7625961945031713,-2.350966173361522,-2.275553911205074,0.9751606765327695,1.029260042283298,0.372784355179704,0.4354228329809725,-1.4249830866807611,-1.1038054968287527,0.8690845665961945,-5.739627906976744,-1.9210570824524311,-2.212832980972516,-1.825710359408034,-2.1535327695560254,-2.449934460887949,-3.1214524312896406,-3.56207399577167,-4.035359408033827,-1.1540401691331923,-1.2709154334038055,-1.6222959830866808,-1.7767568710359407,-2.767828752642706,-2.764389006342495,-1.376200845665962,-4.003019027484144,-4.242678646934461,-3.4518710359408034,-3.775422832980973,-3.7991120507399576,-2.207380549682875,-3.8747695560253703,-3.6957019027484144,-4.112978858350951,1.1920866807610992,0.9132811839323468,0.9407040169133193,1.1101712473572938,0.2124249471458774,0.33276955602537,-2.0204735729386893,-1.52892600422833,-0.9816786469344609,-0.8071585623678647,-2.5322875264270612,-1.702105708245243,-1.6465052854122622,1.2024249471458772,-4.004420718816068,-3.7024355179704016,-3.3220570824524316,-2.7617632135306556
0.31640625,-2.8028076109936575,-3.0614714587737843,-3.4872177589852007,-3.8783636363636362,-3.092154334038055,0.28820507399577167,0.5338964059196618,-1.2291987315010573,-0.6676279069767442,-2.358202959830867,-2.3147568710359407,1.0556828752642706,1.0540338266384779,0.42031078224101476,0.4158054968287527,-1.441520084566596,-0.9788837209302326,0.9289344608879492,-5.877942917547569,-1.9272706131078225,-2.2345369978858347,-1.870122621564482,-2.213414376321353,-2.581027484143763,-3.175143763213531,-3.7148414376321353,-4.053955602536997,-1.160247357293869,-1.3070655391120507,-1.6315961945031712,-1.6694101479915433,-2.8308054968287526,-2.8459513742071882,-1.4185116279069767,-4.2900317124735725,-4.504892177589852,-3.496257928118393,-3.8074397463002114,-4.029321353065539,-2.243492600422833,-3.637336152219873,-3.4541162790697677,-3.8610993657505284,1.3180380549682875,1.0567568710359407,1.0676659619450317,1.2010232558139533,0.3342494714587738,0.38334883720930235,-1.8780253699788585,-1.4762663847780126,-0.7813953488372094,-0.6781331923890064,-1.878845665961945,-0.9288858350951376,-1.4813107822410148,1.3324883720930234,-4.096281183932347,-3.803594080338266,-3.2818097251585625,-2.624477801268499
0.3203125,-2.959706131078224,-3.20600422832981,-3.789674418604651,-4.124021141649049,-3.2150317124735732,-0.1546553911205074,0.1994397463002114,-1.232306553911205,-0.5292896405919661,-2.371602536997886,-2.289985200845666,1.1104080338266384,1.0974122621564482,0.47704228329809717,0.4705369978858351,-1.229877378435518,-0.8065137420718816,1.0063340380549683,-6.174213530655391,-2.0253276955602537,-2.2871775898520084,-1.9712875264270613,-2.2929133192389006,-2.769953488372093,-3.2938583509513744,-3.9068625792811837,-4.1902325581395345,-1.2314566596194505,-1.3442114164904864,-1.692505285412262,-1.6374080338266386,-2.9071987315010572,-2.908881606765328,-1.4794038054968288,-4.502668076109937,-4.630856236786469,-3.7026976744186046,-3.9860211416490485,-4.352422832980972,-2.3508794926004226,-3.546494714587738,-3.3632706131078223,-3.752739957716702,1.4584059196617336,1.1692431289640592,1.207014799154334,1.2701585623678646,0.4271733615221987,0.44427695560253705,-1.8790401691331922,-1.46592600422833,-0.6812600422832981,-0.6162389006342495,-2.506511627906977,-1.8269957716701903,-1.3646659619450316,1.4356976744186047,-4.237746300211416,-3.939883720930233,-3.261139534883721,-2.579029598308668
0.32421875,-3.2291416490486258,-3.395953488372093,-4.130357293868922,-4.447169133192389,-3.4328646934460885,-0.05865539112050739,0.010498942917547577,-1.0815961945031713,-0.5757632135306554,-2.4067019027484147,-2.2352959830866808,1.1382811839323468,1.1428118393234672,0.4915052854122621,0.54484778012685,-1.0347568710359407,-0.7466046511627907,1.0476448202959832,-6.525190274841438,-2.2039471458773785,-2.3800993657505285,-2.1426596194503174,-2.3754841437632135,-2.9516701902748417,-3.40638266384778,-4.179374207188161,-4.422524312896406,-1.3181733615221987,-1.362813953488372,-1.8060401691331922,-1.7416723044397464,-3.039325581395349,-2.8779196617336154,-1.5434080338266385,-4.575951374207189,-4.597809725158562,-4.025816067653277,-4.2874524312896405,-4.683803382663847,-2.50054334038055,-3.5867420718816065,-3.387040169133192,-3.781644820295983,1.5472241014799155,1.2735327695560252,1.260710359408034,1.340384778012685,0.47153276955602536,0.4690380549682875,-1.90176955602537,-1.4566553911205076,-0.6461416490486258,-0.5181331923890063,-2.438367864693446,-1.9374503171247357,-1.3089154334038056,1.5605919661733614,-4.368813953488372,-4.028610993657505,-3.310693446088795,-2.5965771670190274
0.328125,-3.492401691331924,-3.5848710359408034,-4.399756871035941,-4.7031543340380555,-3.6743890063424947,-0.06691120507399577,-0.1133784355179704,-0.998955602536998,-0.6717589852008458,-2.4955137420718816,-2.194,1.1671501057082452,1.2439725158562367,0.5008160676532769,0.6769873150105709,-1.0244672304439748,-0.8178562367864693,1.127139534883721,-6.939143763213531,-2.4083572938689217,-2.482264270613108,-2.3480845665961945,-2.4230021141649045,-3.1457124735729387,-3.4734545454545454,-4.388923890063425,-4.625854122621565,-1.4203636363636363,-1.3741691331923889,-1.9454059196617337,-1.83561310782241,-3.1952093023255816,-2.818063424947146,-1.601245243128964,-4.55531289640592,-4.508,-4.398482029598308,-4.617788583509514,-4.906778012684989,-2.663653276955603,-3.6920211416490485,-3.4231627906976745,-3.8239323467230446,1.609122621564482,1.3912283298097252,1.265845665961945,1.3961416490486258,0.44058350951374203,0.5330232558139535,-1.968875264270613,-1.405016913319239,-0.6657610993657506,-0.3901289640591966,-2.5777357293868923,-2.293600422832981,-1.2820528541226215,1.6813953488372093,-4.4349006342494715,-4.039978858350952,-3.3994714587737844,-2.679169133192389
0.33203125,-3.688515856236786,-3.6984207188160676,-4.458632135306554,-4.821883720930233,-3.8302832980972514,0.189107822410148,0.131276955602537,-1.0175602536997885,-0.5303319238900635,-2.5914989429175477,-2.168215644820296,1.1847336152219874,1.3709429175475687,0.4977040169133193,0.8215116279069767,-1.0636490486257928,-0.6929450317124736,1.1973150105708246,-7.246771670190275,-2.5683276955602534,-2.560729386892177,-2.5689767441860463,-2.4508224101479916,-3.304697674418605,-3.500295983086681,-4.458099365750528,-4.725995771670191,-1.5298097251585625,-1.383490486257928,-2.083725158562368,-1.8139196617336153,-3.3387145877378437,-2.7994672304439745,-1.6507737843551797,-4.532619450317125,-4.517289640591966,-4.674109936575053,-4.830443974630022,-5.025486257928118,-2.780291754756871,-3.7643150105708245,-3.419019027484144,-3.8487188160676533,1.6793150105708246,1.5109619450317127,1.2606997885835096,1.488014799154334,0.4106680761099366,0.6125158562367865,-1.946186046511628,-1.3544566596194503,-0.6946723044397464,-0.24869344608879498,-2.3423657505285416,-2.1263572938689217,-1.2376955602536996,1.822830866807611,-4.432811839323467,-3.9987272727272725,-3.4872114164904864,-2.727689217758985
0.3359375,-3.7504270613107824,-3.7283171247357294,-4.3553911205074,-4.792983086680762,-3.9046215644820297,0.004308668076109933,0.009501057082452415,-1.0248139534883722,-0.49316913319238903,-2.637955602536998,-2.171293868921776,1.215708245243129,1.4535412262156449,0.48942071881606763,0.8968689217758985,-0.9676659619450317,-0.571137420718816,1.2262431289640592,-7.539961945031712,-2.617887949260042,-2.589627906976744,-2.6845771670190275,-2.4746131078224103,-3.3800507399577167,-3.502401691331924,-4.43954334038055,-4.724964059196617,-1.6134164904862578,-1.3989598308668076,-2.151858350951374,-1.7148456659619449,-3.448139534883721,-2.8789767441860468,-1.6961902748414377,-4.619321353065539,-4.640131078224102,-4.788704016913319,-4.947107822410148,-5.007959830866807,-2.8298520084566596,-3.7736067653276955,-3.3900993657505287,-3.831162790697674,1.7257801268498942,1.5894186046511627,1.2999344608879493,1.5675052854122622,0.4219767441860465,0.6569302325581395,-1.9451162790697674,-1.3400211416490486,-0.6719704016913319,-0.21566807610993657,-2.68716067653277,-2.7374566596194505,-1.2005433403805497,1.894046511627907,-4.4431522198731495,-3.949169133192389,-3.5346871035940803,-2.7824059196617337
0.33984375,-3.6565264270613107,-3.679832980972516,-4.261450317124735,-4.752704016913319,-3.8075813953488375,-0.001885835095137423,0.04870613107822409,-0.8936997885835094,-0.4962684989429176,-2.6255560253699786,-2.2146427061310785,1.2280824524312897,1.4669746300211417,0.5152558139534883,0.9319598308668077,-0.8850887949260042,-0.5546088794926004,1.253076109936575,-7.813526427061311,-2.5590697674418608,-2.5349386892177592,-2.626799154334038,-2.4508414376321355,-3.305720930232558,-3.5095919661733617,-4.362124735729386,-4.704293868921775,-1.629938689217759,-1.392754756871036,-2.1560105708245243,-1.6146997885835097,-3.439860465116279,-2.994581395348837,-1.706507399577167,-4.759712473572939,-4.748522198731501,-4.758767441860465,-4.964668076109937,-5.05130021141649,-2.783384778012685,-3.8148689217758984,-3.4572219873150107,-3.8858668076109937,1.7598414376321352,1.6173002114164903,1.3257315010570825,1.6201395348837209,0.4591585623678647,0.685801268498943,-1.9193171247357295,-1.4339344608879492,-0.6770993657505286,-0.29208245243128966,-2.8027568710359407,-2.5392727272727273,-1.2005306553911206,1.917782241014799,-4.4896109936575055,-3.987355179704017,-3.5130465116279073,-2.8226448202959835
0.34375,-3.454171247357294,-3.597262156448203,-4.221177589852008,-4.751678646934461,-3.670289640591966,0.10135095137420717,-0.11853065539112054,-0.8018181818181818,-0.49213742071881605,-2.5399006342494714,-2.216674418604651,1.259046511627907,1.4545729386892179,0.5647822410147991,0.9195961945031712,-0.8675095137420719,-0.6516448202959831,1.2571902748414379,-8.142820295983087,-2.399033826638478,-2.431684989429175,-2.4420211416490485,-2.43223467230444,-3.1137188160676534,-3.526120507399577,-4.367266384778013,-4.743536997885836,-1.6010253699788584,-1.3845073995771668,-2.0651627906976744,-1.607458773784355,-3.385171247357294,-3.0761458773784356,-1.6796997885835097,-4.840202959830867,-4.783623678646935,-4.6390211416490486,-4.966712473572939,-5.067828752642706,-2.6605560253699787,-3.900596194503171,-3.643040169133193,-4.027315010570824,1.7619027484143763,1.5739598308668077,1.3494651162790698,1.569541226215645,0.48702959830866804,0.6094291754756871,-1.9399640591966174,-1.59292600422833,-0.6988160676532769,-0.45412050739957716,-2.9359471458773783,-2.673488372093023,-1.2738350951374207,1.8878668076109937,-4.548454545454545,-4.101911205073995,-3.521287526427061,-2.9145517970401693
0.34765625,-3.2569999999999997,-3.529118393234672,-4.2738393234672305,-4.852832980972516,-3.5401923890063425,0.1860232558139535,0.08382029598308667,-0.8142071881606765,-0.4570507399577167,-2.4077589852008456,-2.238403805496829,1.2559386892177589,1.3936659619450316,0.6019830866807611,0.8700126849894292,-0.845877378435518,-0.6124101479915434,1.263384778012685,-8.483475687103594,-2.245211416490486,-2.358416490486258,-2.2149006342494713,-2.378589852008457,-2.9000422832980974,-3.54676955602537,-4.432291754756871,-4.854995771670191,-1.5225877378435517,-1.3648668076109935,-1.9258118393234671,-1.6952262156448203,-3.2437251585623676,-3.07922621564482,-1.6311797040169134,-4.776232558139535,-4.818731501057083,-4.530640591966173,-4.993526427061311,-5.093638477801269,-2.5201606765327695,-4.0626384778012685,-3.91661733615222,-4.222403805496828,1.7288689217758986,1.4944545454545453,1.3195665961945031,1.459107822410148,0.48188160676532765,0.4886490486257927,-1.9585539112050738,-1.765289640591966,-0.7875813953488372,-0.6357970401691331,-2.8286088794926005,-2.6259915433403807,-1.379112050739958,1.8506871035940804,-4.632073995771671,-4.195877378435518,-3.5419281183932347,-3.017767441860465
0.3515625,-3.153775898520085,-3.4971120507399576,-4.308936575052854,-4.994291754756872,-3.4844672304439746,0.06832980972515855,0.12716490486257928,-0.75430866807611,-0.5282875264270613,-2.3107272727272727,-2.265228329809725,1.2838224101479916,1.3317188160676534,0.635014799154334,0.8421585623678647,-0.7529365750528542,-0.7228668076109936,1.2768118393234673,-8.753942917547569,-2.1099830866807614,-2.3315623678646933,-2.0590126849894292,-2.3341860465116278,-2.804014799154334,-3.5540084566596195,-4.514873150105708,-4.9778604651162786,-1.466849894291755,-1.338019027484144,-1.819463002114165,-1.7024397463002114,-3.1384186046511626,-3.043126849894292,-1.609490486257928,-4.647186046511628,-4.903359408033827,-4.56884355179704,-5.059651162790698,-5.135964059196618,-2.4478837209302324,-4.205071881606766,-4.142678646934461,-4.3906659619450314,1.685520084566596,1.3953720930232558,1.2793002114164906,1.3723784355179705,0.48083509513742073,0.3534207188160676,-1.9812515856236788,-1.8891923890063425,-0.8711839323467232,-0.7297632135306554,-2.813122621564482,-2.4504989429175477,-1.472029598308668,1.8496723044397463,-4.650653276955603,-4.272274841437632,-3.535737843551797,-3.147845665961945
0.35546875,-3.182718816067653,-3.5074228329809722,-4.366739957716701,-5.092340380549683,-3.534012684989429,0.10963002114164903,-0.1154080338266385,-0.740892177589852,-0.562338266384778,-2.264274841437632,-2.2590338266384777,1.3158541226215645,1.3254968287526427,0.6701205073995772,0.818399577167019,-0.7818202959830867,-0.8766786469344608,1.3077970401691332,-8.953167019027484,-2.0893424947145878,-2.3677167019027485,-2.0869006342494716,-2.3393128964059198,-2.862854122621565,-3.522,-4.534486257928118,-5.017090909090909,-1.4647441860465116,-1.3339133192389008,-1.803987315010571,-1.6446173361522198,-3.0919704016913316,-3.0173171247357295,-1.6456194503171249,-4.5532494714587735,-5.013826638477801,-4.7102346723044395,-5.124653276955602,-5.1989238900634245,-2.469602536997886,-4.310408033826639,-4.237653276955602,-4.469139534883721,1.7247441860465116,1.3520253699788585,1.2710401691331923,1.2980697674418604,0.48496617336152215,0.2832071881606765,-2.027704016913319,-1.9501120507399579,-0.9094122621564482,-0.7586659619450317,-2.447663847780127,-2.5320528541226217,-1.515355179704017,1.8827082452431292,-4.591801268498943,-4.308391120507399,-3.536754756871036,-3.192228329809725
0.359375,-3.34992177589852,-3.576589852008457,-4.411173361522199,-5.102655391120508,-3.6702980972515853,-0.06275475687103595,-0.12469767441860465,-0.723338266384778,-0.44983298097251584,-2.272494714587738,-2.2033002114164906,1.3984249471458774,1.3626723044397462,0.7237589852008457,0.8555813953488373,-0.7901099365750529,-0.9035264270613108,1.3356363636363635,-9.116281183932347,-2.169862579281184,-2.418276955602537,-2.2097484143763215,-2.326951374207188,-3.057987315010571,-3.4476532769556028,-4.537585623678647,-4.921093023255814,-1.5153298097251584,-1.3638456659619451,-1.8875750528541226,-1.5248858350951373,-3.1033298097251585,-3.0204249471458775,-1.7044693446088794,-4.510951374207187,-5.004532769556025,-4.886775898520085,-5.179367864693446,-5.337281183932347,-2.5789915433403805,-4.322780126849894,-4.210803382663848,-4.507338266384778,1.8001268498942917,1.377799154334038,1.3247040169133193,1.3156194503171248,0.5076871035940803,0.28837420718816065,-1.9926025369978857,-1.903630021141649,-0.8866997885835095,-0.7287272727272727,-2.9060021141649046,-3.10807399577167,-1.476167019027484,1.9497928118393233,-4.456579281183933,-4.297025369978858,-3.517190274841438,-3.1447441860465113
0.36328125,-3.503742071881607,-3.6199492600422833,-4.525739957716702,-5.023190274841438,-3.7869260042283295,0.1787568710359408,0.1302832980972516,-0.6211775898520084,-0.39409725158562364,-2.283890063424947,-2.090742071881607,1.4830570824524312,1.4411057082452432,0.7857124735729387,0.9195729386892179,-0.500014799154334,-0.6010570824524313,1.4068604651162788,-9.269031712473573,-2.3123298097251586,-2.4203446088794927,-2.4130993657505284,-2.3042706131078226,-3.2210676532769558,-3.345446088794926,-4.465344608879493,-4.721858350951374,-1.5710697674418603,-1.407186046511628,-1.9670824524312898,-1.4825454545454546,-3.1528773784355177,-3.016289640591966,-1.7715581395348838,-4.541887949260042,-4.814610993657506,-5.0860105708245245,-5.223746300211416,-5.488,-2.6533298097251587,-4.31762579281184,-4.132384778012685,-4.494930232558139,1.8981881606765327,1.4283932346723045,1.3959408033826637,1.4074968287526426,0.5902727272727273,0.39056448202959826,-1.9802283298097252,-1.837570824524313,-0.8298879492600424,-0.7173699788583509,-1.9304947145877378,-2.2739936575052853,-1.4307420718816066,2.005513742071882,-4.337862579281184,-4.238202959830867,-3.457317124735729,-3.0260380549682875
0.3671875,-3.605936575052854,-3.6261585623678645,-4.68675264270613,-4.9013742071881605,-3.824090909090909,0.16019027484143764,-0.08651585623678648,-0.5096744186046511,-0.31972093023255815,-2.218849894291755,-1.915279069767442,1.5532198731501057,1.4968731501057082,0.8559027484143763,0.9753319238900634,-0.4442684989429176,-0.37499577167019027,1.4481923890063424,-9.409443974630022,-2.4124693446088794,-2.379061310782241,-2.527674418604651,-2.2526427061310783,-3.229363636363636,-3.2360359408033825,-4.393065539112051,-4.573205073995772,-1.6350697674418606,-1.4516236786469345,-2.0011268498942916,-1.527968287526427,-3.1405073995771673,-2.946076109936575,-1.8221606765327694,-4.527412262156448,-4.574078224101481,-5.212966173361522,-5.228915433403806,-5.585019027484144,-2.696674418604651,-4.288718816067654,-4.079689217758985,-4.462932346723044,1.9621712473572939,1.46038689217759,1.4733467230443975,1.4632389006342494,0.6769788583509514,0.4948498942917548,-1.8800782241014797,-1.6971733615221989,-0.786553911205074,-0.72769133192389,-2.279380549682875,-2.5196892177589856,-1.3832600422832981,2.0313192389006343,-4.270763213530655,-4.095746300211417,-3.359202959830867,-2.851583509513742
0.37109375,-3.614198731501057,-3.5941331923890067,-4.78793446088795,-4.807439746300211,-3.7858900634249473,0.08175052854122622,0.07246511627906976,-0.33831289640591966,-0.4013171247357294,-2.088752642706131,-1.819274841437632,1.5862748414376322,1.5134143763213532,0.927107822410148,0.9959767441860464,-0.22539746300211413,-0.41833403805496827,1.4956363636363637,-9.483775898520085,-2.4361733615221985,-2.357399577167019,-2.5390528541226214,-2.2351162790697674,-3.16530866807611,-3.1462536997885837,-4.370336152219873,-4.471021141649049,-1.6691754756871036,-1.4619302325581394,-1.9608858350951375,-1.6188329809725157,-3.1322304439746302,-2.788120507399577,-1.8448689217758987,-4.488194503171248,-4.446067653276956,-5.221251585623679,-5.247505285412262,-5.567471458773785,-2.662627906976744,-4.253646934460888,-4.066274841437632,-4.423716701902749,1.9931501057082452,1.4666067653276957,1.5301458773784355,1.5231035940803384,0.7379027484143763,0.5444080338266385,-1.7107885835095138,-1.6218097251585624,-0.757646934460888,-0.7163467230443975,-2.219522198731501,-2.7199725158562367,-1.3006553911205074,2.040632135306554,-4.200591966173361,-3.9037420718816067,-3.216720930232558,-2.6564672304439747
0.375,-3.573940803382664,-3.563183932346723,-4.773507399577167,-4.7568456659619445,-3.7342854122621563,-0.5510718816067652,-0.5758266384778012,-0.1845031712473573,-0.29601902748414377,-1.9504587737843553,-1.7976067653276957,1.6007357293868922,1.5123572938689218,0.9756892177589852,0.9856575052854123,-0.18413319238900633,-0.6991310782241014,1.5256067653276955,-9.512672304439745,-2.408346723044397,-2.3697420718816065,-2.484321353065539,-2.214435517970402,-3.1488414376321354,-3.094632135306554,-4.444674418604651,-4.479285412262156,-1.6567463002114164,-1.477416490486258,-1.9061733615221987,-1.661141649048626,-3.0785750528541227,-2.6652790697674416,-1.8417737843551796,-4.469636363636363,-4.52346934460888,-5.18200422832981,-5.264023255813954,-5.494158562367865,-2.635797040169133,-4.114266384778013,-4.043551797040169,-4.310158562367865,2.008615221987315,1.452139534883721,1.55492600422833,1.4931775898520085,0.7967357293868922,0.5227124735729387,-1.5073974630021143,-1.5444080338266384,-0.6967230443974629,-0.6667610993657505,-3.351985200845666,-3.7770211416490485,-1.2428118393234673,2.069549682875264,-4.183006342494714,-3.7406342494714586,-3.0711987315010574,-2.5067822410147995
0.37890625,-3.527494714587738,-3.521877378435518,-4.722892177589852,-4.81053065539112,-3.6909302325581392,0.15605285412262157,0.24173572938689217,-0.2794841437632135,-0.31049048625792813,-1.8162452431289642,-1.8378118393234673,1.6513213530655393,1.4968794926004227,1.0582389006342494,0.95569133192389,0.0016828752642706558,-0.3037716701902748,1.548321353065539,-9.512689217758986,-2.410403805496829,-2.398659619450317,-2.4389112050739956,-2.2371501057082455,-3.211782241014799,-3.155536997885835,-4.557219873150106,-4.521583509513742,-1.6598668076109935,-1.5279809725158562,-1.85146088794926,-1.6559894291754758,-3.0517293868921778,-2.608501057082452,-1.859321353065539,-4.52639957716702,-4.621549682875264,-5.109731501057082,-5.257803382663847,-5.43531712473573,-2.613057082452431,-3.912961945031712,-3.972336152219873,-4.116097251585623,2.0427124735729385,1.4407758985200845,1.588968287526427,1.4756236786469346,0.8824080338266383,0.4463107822410148,-1.3505200845665961,-1.5330338266384778,-0.5780190274841437,-0.5852241014799154,-2.020279069767442,-2.4401818181818187,-1.138600422832981,2.111860465116279,-4.12830866807611,-3.643600422832981,-2.965894291754757,-2.4231754756871036
0.3828125,-3.509947145877378,-3.504331923890063,-4.685716701902749,-4.91169133192389,-3.68576955602537,0.16020507399577166,0.2613742071881607,-0.2588181818181818,-0.21858139534883722,-1.7511923890063423,-1.8739894291754755,1.6864566596194501,1.4793467230443975,1.1057315010570823,0.9371395348837209,-0.08194714587737845,-0.2882832980972516,1.5648224101479915,-9.545701902748414,-2.410389006342495,-2.437902748414376,-2.43476532769556,-2.2939344608879493,-3.2933340380549683,-3.271154334038055,-4.696545454545454,-4.576293868921776,-1.6464545454545456,-1.5703128964059196,-1.8338985200845666,-1.6663192389006343,-3.010422832980973,-2.6952262156448206,-1.9036997885835096,-4.612095137420719,-4.591625792811839,-5.038513742071882,-5.269211416490486,-5.434291754756871,-2.648179704016913,-3.695145877378436,-3.820566596194503,-3.927150105708245,2.089139534883721,1.4263065539112052,1.6808435517970401,1.4446427061310783,0.9701331923890063,0.4235835095137421,-1.3071606765327697,-1.5475052854122622,-0.4562008456659619,-0.5542558139534884,-2.167892177589852,-2.470120507399577,-1.0384524312896406,2.1387124735729386,-4.043646934460888,-3.6239640591966173,-2.8668076109936576,-2.3891014799154338
