time,AF3,AF4,AF7,AF8,AFz,C1,C2,C3,C4,C5,C6,CP1,CP2,CP3,CP4,CP5,CP6,CPz,Cz,F1,F2,F3,F4,F5,F6,F7,F8,FC1,FC2,FC3,FC4,FC5,FC6,FCz,FT7,FT8,Fp1,Fp2,Fpz,Fz,O1,O2,Oz,P1,P2,P3,P4,P5,P6,P7,P8,PO3,PO4,PO7,PO8,POz,Pz,T7,T8,TP7,TP8
0.0,0.3120273684210526,0.15082736842105263,0.2936421052631579,-0.10862315789473684,0.23741684210526315,0.5073242105263158,0.2774842105263158,0.3272252631578948,-0.019538947368421038,0.3260905263157895,0.02523368421052632,0.038705263157894736,-0.11857473684210527,0.19677052631578945,-0.04900421052631579,0.22173684210526312,0.054400000000000004,-0.027315789473684213,0.7534042105263158,0.1679621052631579,0.09611368421052631,0.22811157894736842,-0.15880210526315788,0.13800631578947367,0.04512842105263155,0.42504421052631575,0.06254315789473686,0.1368,0.013355789473684201,0.11622315789473686,-0.05859789473684209,0.2318084210526316,0.0532021052631579,0.08573894736842105,0.49969473684210525,0.0858884210526316,0.12411368421052639,-0.012528421052631565,0.1874694736842105,0.16331789473684208,0.4020631578947369,0.18241473684210524,0.2528442105263158,0.06807789473684212,-0.05914526315789475,0.11128421052631579,0.021759999999999998,0.1831663157894737,0.13828421052631576,0.35662947368421055,0.1377726315789474,0.16990947368421055,0.03435157894736842,0.39414736842105264,0.5738547368421052,0.12495789473684212,0.048505263157894746,0.11077052631578946,-0.08808210526315788,0.3477052631578948,0.21507157894736845
0.00390625,0.2657915789473684,0.15290105263157894,0.25867578947368425,-0.1908842105263158,0.20246105263157893,0.09611578947368421,-0.08844,0.30665473684210526,-0.11102736842105261,0.2921747368421053,-0.06214105263157895,0.059271578947368425,-0.09388210526315788,0.23172631578947367,-0.05104421052631576,0.3635642105263158,-0.040164210526315795,-0.008818947368421056,0.6804210526315789,0.16798105263157895,0.10434947368421052,0.20138526315789473,-0.13,0.20584631578947368,0.03997473684210527,0.39831157894736846,0.22392631578947367,0.1141957894736842,0.0072042105263157965,0.11827368421052631,-0.03496842105263158,0.2441494736842105,0.017221052631578925,0.0857578947368421,0.5891389473684211,0.08278315789473685,0.1354168421052631,-0.012505263157894717,0.11447789473684211,0.14891368421052634,0.45864210526315785,0.23171157894736844,0.3124989473684211,0.09888842105263156,-0.048839999999999974,0.1318463157894737,0.013492631578947341,0.17494947368421054,0.11875157894736842,0.3710042105263158,0.17582736842105268,0.19968,0.07030105263157894,0.43215789473684213,0.33537684210526314,0.1629978947368421,0.06393473684210528,0.10458947368421051,-0.03050315789473685,0.23052842105263158,-0.02031368421052636
0.0078125,0.2462484210526316,0.17756000000000002,0.25350526315789473,-0.1518273684210526,0.18398105263157896,0.17015999999999998,-0.07612421052631578,0.39816842105263156,-0.13778315789473686,0.2602842105263158,-0.049768421052631566,0.09834526315789473,-0.10420631578947367,0.2625768421052631,-0.030498947368421035,0.1723957894736842,-0.15632842105263162,0.005597894736842102,0.56428,0.17208842105263156,0.11873052631578947,0.2507115789473684,-0.09506315789473685,0.41658105263157896,0.06465052631578946,0.34794105263157893,0.43672,0.13990526315789473,0.030852631578947375,0.20051578947368423,-0.00718947368421053,0.41374736842105264,0.07889684210526315,0.08369052631578948,0.605581052631579,0.16810947368421053,0.13541263157894728,-0.017631578947368397,0.12375157894736845,0.16335157894736843,0.45041263157894734,0.2759536842105263,0.3217747368421053,0.1492736842105263,-0.05914105263157894,0.18120210526315791,-0.0059894736842105445,0.20166947368421054,0.10951578947368419,0.4090231578947369,0.23851999999999998,0.22743789473684206,0.07747578947368422,0.5308463157894736,0.34256842105263163,0.17121473684210523,0.09170736842105262,0.22487368421052634,0.0898,0.23461473684210526,-0.17760421052631578
0.01171875,0.2678315789473684,0.2268989473684211,0.3408757894736842,0.04245894736842107,0.22201263157894738,0.04370947368421053,-0.007248421052631574,0.23472210526315787,0.11922736842105264,0.2746821052631579,0.0324442105263158,0.12709894736842106,-0.13505052631578948,0.2749157894736842,-0.05517263157894737,0.17750947368421055,-0.00315368421052631,-0.009810526315789478,0.4727452631578947,0.21422947368421055,0.1906673684210526,0.3442694736842105,-0.039585263157894755,0.58208,0.1510126315789474,0.32429473684210525,0.5816631578947369,0.1758484210526316,0.05755789473684211,0.3341726315789474,0.007197894736842105,0.6172842105263158,0.21561894736842102,0.10734105263157893,0.4144084210526316,0.19689684210526315,-0.1524084210526315,-0.012522105263157888,0.14431789473684214,0.18905052631578945,0.3486505263157894,0.22762526315789475,0.27650736842105267,0.14617263157894736,-0.08587578947368422,0.2038021052631579,-0.029648421052631567,0.20577684210526315,0.04681263157894738,0.45016210526315786,0.19640210526315788,0.2325957894736842,-0.02015999999999999,0.4331957894736842,-0.08913052631578948,0.11984000000000002,0.0906378947368421,0.36774526315789474,0.19254736842105266,0.25930105263157893,-0.2125515789473684
0.015625,0.32130315789473685,0.2916315789473684,0.5084694736842105,0.21206736842105264,0.2682484210526316,0.31301684210526315,0.12948842105263159,0.3673368421052632,-0.046286315789473675,0.2829052631578947,0.11569894736842105,0.12198105263157895,-0.1936,0.23789263157894736,-0.10040842105263156,-0.02290736842105265,0.15925684210526317,-0.01599789473684209,0.4583747368421053,0.2697326315789474,0.2678042105263158,0.41929894736842105,0.04783157894736842,0.594418947368421,0.25073473684210523,0.4024273684210526,0.6279010526315789,0.21800842105263157,0.09457052631578947,0.4030336842105263,0.006189473684210523,0.7283094736842105,0.37186315789473684,0.13406947368421052,0.11424210526315792,0.10130947368421049,-0.5790063157894736,0.0008505263157894641,0.13813052631578948,0.23526315789473684,0.24893894736842107,0.08269894736842104,0.17167578947368423,0.1183978947368421,-0.16397894736842106,0.18942526315789474,-0.10467368421052631,0.20271157894736844,-0.04571789473684211,0.3854,0.11931368421052634,0.18326105263157894,-0.13733473684210526,0.4332084210526316,0.28909684210526315,0.037593684210526314,0.07420210526315789,0.39345473684210525,0.10518526315789475,0.2706021052631579,-0.2125263157894737
0.01953125,0.34904842105263156,0.3307305263157895,0.6390168421052632,0.3076631578947368,0.3443389473684211,0.08691157894736842,0.027724210526315803,0.05277263157894736,0.11818947368421052,0.2880421052631579,0.1280484210526316,0.08188842105263155,-0.26349894736842105,0.2173663157894737,-0.1785305263157895,0.16313263157894736,0.08423789473684212,-0.05915578947368422,0.49952842105263157,0.2954357894736842,0.3068336842105263,0.4367747368421052,0.06941894736842108,0.46694315789473684,0.31545052631578946,0.5268126315789474,0.4202526315789474,0.22830105263157893,0.0997115789473684,0.38449894736842105,0.03288842105263157,0.6902652631578948,0.38829263157894733,0.1433115789473684,0.028926315789473713,-0.05905263157894736,-0.6571347368421053,0.03578526315789474,0.12372842105263158,0.24556,0.13793263157894736,-0.06125052631578943,0.040092631578947394,0.0413178947368421,-0.23697894736842104,0.16679789473684212,-0.19206105263157894,0.15744842105263157,-0.15053894736842105,0.20137052631578947,-0.02873263157894738,0.07841263157894739,-0.23705894736842104,0.30675368421052623,0.3086442105263158,-0.03846736842105265,-0.00801684210526317,0.28964210526315787,-0.15385052631578944,0.21816210526315788,-0.2701031578947369
0.0234375,0.3480168421052631,0.31528631578947375,0.6708568421052631,0.27580842105263154,0.35971368421052635,0.057098947368421055,0.03590736842105263,0.04558736842105264,0.1747263157894737,0.24693263157894738,0.04889052631578946,0.05310105263157895,-0.2810189473684211,0.19160842105263157,-0.21243578947368422,-0.013698947368421026,0.10580210526315789,-0.08897052631578946,0.5766021052631578,0.2800105263157895,0.3181663157894737,0.3596757894736842,0.050907368421052625,0.3178863157894737,0.29282947368421053,0.5874610526315789,0.12010736842105267,0.2190505263157895,0.07096,0.30947157894736843,0.056534736842105256,0.5381157894736842,0.23925894736842104,0.1258315789473684,0.2602105263157895,-0.0991515789473684,-0.22844000000000003,0.10673052631578946,0.14325473684210527,0.2835915789473685,0.04436842105263157,-0.15683157894736843,-0.0791410526315789,-0.02548842105263159,-0.30069473684210524,0.09178315789473686,-0.24037894736842103,0.08962526315789476,-0.1978378947368421,-0.04429473684210526,-0.11097684210526318,-0.011033684210526301,-0.32442315789473686,-0.04067789473684209,-0.17037473684210522,-0.12173052631578948,-0.0964357894736842,0.12104,-0.39440000000000003,0.14517052631578947,-0.3852526315789473
0.02734375,0.37577684210526313,0.2906421052631579,0.5670526315789473,0.24498105263157896,0.38339368421052633,0.004644210526315794,-0.07715578947368422,-0.021231578947368414,0.07294736842105262,0.1574821052631579,-0.015861052631578956,0.008886315789473676,-0.29949894736842103,0.14947578947368423,-0.17132,-0.18537052631578949,0.10478526315789474,-0.13110947368421053,0.6732442105263158,0.2810505263157895,0.29553473684210524,0.30827789473684214,0.013915789473684206,0.26033052631578946,0.24145894736842105,0.5453136842105263,-0.10502105263157899,0.2015536842105263,0.06991789473684212,0.23750947368421055,0.05449894736842106,0.35517052631578944,0.04600631578947367,0.1433242105263158,0.5572694736842106,0.10029684210526314,0.20842315789473673,0.18897684210526317,0.24401894736842106,0.2732631578947368,-0.0707494736842105,-0.1691957894736842,-0.15828421052631578,-0.09746105263157893,-0.3408,-0.01617684210526316,-0.2578294736842105,-0.047107368421052634,-0.16289894736842103,-0.23238947368421056,-0.1459136842105263,-0.12513052631578944,-0.37688842105263154,-0.07356631578947367,-0.09637894736842106,-0.1916378947368421,-0.16225894736842106,-0.0084778947368421,-0.39440631578947366,0.03517894736842107,-0.4386884210526316
0.03125,0.3901578947368421,0.3183705263157895,0.4272357894736842,0.16889052631578946,0.3885557894736842,0.15369894736842107,0.05855368421052632,0.10006736842105263,0.0965957894736842,0.08451368421052631,-0.048741052631578935,-0.07437052631578948,-0.26865052631578945,0.03846315789473683,-0.09937473684210528,-0.10002736842105264,0.14382105263157893,-0.16709052631578947,0.7873263157894738,0.29955368421052636,0.3202147368421053,0.3257726315789474,0.008776842105263145,0.31482947368421055,0.1972736842105263,0.3613242105263158,-0.10501052631578951,0.1974694736842105,0.07404842105263158,0.22518736842105264,0.022606315789473683,0.28113894736842104,-0.07119157894736843,0.16284210526315787,0.6364610526315789,0.3541852631578947,0.2505621052631579,0.31026526315789477,0.4146673684210527,0.30312421052631583,-0.20232842105263157,-0.13937894736842105,-0.21893263157894735,-0.18173684210526317,-0.3603031578947369,-0.13541052631578945,-0.21775789473684212,-0.20641684210526315,-0.07345263157894737,-0.3331326315789473,-0.13975157894736842,-0.23822947368421055,-0.42413263157894737,0.33348210526315797,0.3107010526315789,-0.25023578947368424,-0.23729052631578948,-0.05784000000000003,-0.10962526315789473,-0.06963789473684212,-0.3143094736842105
0.03515625,0.4672673684210527,0.34820210526315787,0.3491157894736842,0.10312631578947372,0.44710947368421056,-0.012856842105263167,-0.004172631578947365,0.07023789473684212,0.19016210526315788,0.06498105263157895,0.005707368421052628,-0.14837894736842105,-0.26248,-0.061258947368421066,-0.02330315789473685,0.004823157894736845,0.32369684210526317,-0.21131789473684212,0.8705747368421052,0.3663578947368421,0.37163789473684217,0.41827368421052635,0.048829473684210485,0.41553684210526315,0.19418105263157895,0.1824378947368421,0.11598947368421055,0.24781684210526314,0.12130736842105265,0.2631957894736842,-0.010294736842105258,0.3068673684210526,0.003827368421052599,0.21425684210526313,0.49251578947368424,0.4220231578947369,0.02544842105263175,0.41509684210526315,0.46811578947368426,0.34732210526315793,-0.32053894736842103,-0.1743136842105263,-0.24463157894736842,-0.2506063157894737,-0.35517052631578944,-0.24334315789473682,-0.16838736842105265,-0.3472463157894737,-0.0014947368421052798,-0.3341789473684211,-0.057559999999999986,-0.33481052631578945,-0.4282673684210526,0.30882315789473685,-0.021324210526315807,-0.3067726315789474,-0.27427999999999997,-0.03314315789473681,0.3179768421052631,-0.11486105263157895,-0.057332631578947364
0.0390625,0.5454021052631578,0.40885894736842104,0.3172631578947368,0.042425263157894744,0.5344947368421052,0.08997473684210527,-0.06994105263157893,0.23676421052631577,-0.034974736842105246,0.0423684210526316,0.08077894736842103,-0.1843136842105263,-0.25735157894736843,-0.14758315789473686,-0.036665263157894736,0.20525263157894738,0.10579157894736844,-0.2236378947368421,0.8901031578947368,0.4342042105263158,0.4230147368421052,0.5190315789473685,0.12080210526315789,0.4052736842105263,0.21372631578947368,0.033372631578947355,0.3832715789473684,0.30129263157894737,0.16141052631578948,0.3043284210526316,0.018505263157894733,0.3551663157894737,0.17142315789473683,0.23069684210526317,0.30233263157894735,0.22260000000000002,-0.00231368421052639,0.46238526315789474,0.4095073684210526,0.40900000000000003,-0.3657768421052632,-0.21645894736842106,-0.24670315789473685,-0.31334526315789474,-0.37988210526315785,-0.31326315789473685,-0.13861894736842104,-0.3955642105263158,-0.010757894736842124,-0.28381263157894737,0.022642105263157946,-0.37390105263157897,-0.4200315789473685,0.04976842105263158,0.33435368421052636,-0.34789052631578943,-0.29585684210526314,-0.02080421052631578,0.5862694736842106,-0.18272210526315788,0.2212357894736842
0.04296875,0.5566968421052632,0.4633536842105263,0.30287578947368426,0.009557894736842102,0.5488673684210527,0.0005557894736842092,0.009227368421052623,0.23266947368421054,0.04931578947368419,0.0033052631578947595,0.14551368421052635,-0.19770736842105263,-0.25941473684210525,-0.15890526315789474,-0.05515157894736842,0.18267368421052635,0.11709684210526317,-0.2370084210526316,0.7585684210526316,0.4547473684210527,0.40962315789473686,0.5426778947368421,0.12592,0.2880610526315789,0.19419789473684207,-0.0026063157894736814,0.4983915789473684,0.31977894736842105,0.18813263157894736,0.27145473684210525,0.08016631578947368,0.411677894736842,0.27113894736842103,0.2533157894736842,0.19339578947368424,-0.07652210526315789,0.4983073684210525,0.3955642105263158,0.29132421052631585,0.44602315789473684,-0.29794315789473685,-0.2626926315789474,-0.25597473684210525,-0.31434105263157897,-0.3942673684210526,-0.3307263157894737,-0.15710315789473683,-0.3452,-0.016907368421052643,-0.24166736842105263,0.09873684210526318,-0.3728526315789473,-0.39125052631578955,0.3407073684210526,0.414541052631579,-0.34997052631578945,-0.2711873684210527,-0.036244210526315775,0.4906526315789474,-0.19607368421052632,0.3292
0.046875,0.48783789473684214,0.4324905263157895,0.2853873684210526,0.013682105263157909,0.4944021052631579,0.06016842105263157,0.0030378947368421122,0.1771515789473684,0.08117473684210526,-0.02857894736842107,0.15169473684210527,-0.20389052631578947,-0.26865052631578945,-0.10644842105263158,-0.07263789473684212,0.17958105263157897,0.1335326315789474,-0.22570947368421054,0.5601642105263158,0.3869431578947368,0.38288,0.45426315789473687,0.10434947368421049,0.1575431578947368,0.1129957894736842,0.056002105263157916,0.36373894736842105,0.2725073684210526,0.18815157894736842,0.20151999999999998,0.1212778947368421,0.4312421052631579,0.28860842105263157,0.2255557894736842,0.14302315789473682,-0.20915578947368418,1.1068357894736842,0.23522105263157897,0.22140842105263162,0.38945052631578947,-0.16120210526315787,-0.283258947368421,-0.19633894736842109,-0.31434736842105265,-0.3808673684210526,-0.2855052631578947,-0.17869894736842104,-0.22799789473684215,-0.05906736842105261,-0.1994778947368421,0.11312842105263157,-0.30911789473684215,-0.3470357894736842,0.04875999999999999,0.4576884210526316,-0.31808842105263163,-0.25370947368421054,-0.07631368421052633,0.12472631578947366,-0.19607789473684212,0.19451999999999997
0.05078125,0.3459663157894737,0.3420252631578947,0.2113936842105263,0.027050526315789473,0.3967705263157895,-0.03441263157894736,0.0020063157894736902,0.09182315789473684,0.002048421052631588,-0.031667368421052645,0.08898736842105263,-0.1843621052631579,-0.2748168421052632,-0.024227368421052622,-0.08084842105263156,-0.0558421052631579,0.16129684210526313,-0.22364842105263158,0.36381263157894733,0.28721473684210524,0.32225052631578943,0.31546736842105266,0.05809473684210528,0.13081684210526315,0.02148631578947367,0.16807368421052626,0.08103157894736841,0.1943663157894737,0.16552210526315791,0.18508631578947368,0.08326736842105262,0.4518063157894736,0.16320842105263159,0.1700442105263158,0.06285263157894737,-0.12690947368421054,1.1346105263157893,0.051199999999999996,0.20393052631578945,0.3236842105263158,-0.03170105263157895,-0.23908210526315787,-0.16653263157894735,-0.2875957894736842,-0.3520926315789474,-0.22795368421052634,-0.18487157894736844,-0.11904842105263158,-0.04366105263157894,-0.09465263157894738,0.12341052631578953,-0.21973263157894737,-0.3172294736842105,-0.10337684210526314,0.34668,-0.25946315789473684,-0.24138315789473683,-0.05781684210526319,-0.3111368421052632,-0.08096000000000002,-0.08097473684210527
0.0546875,0.23185684210526317,0.23616842105263156,0.2010863157894737,-0.007905263157894752,0.2960168421052632,-0.09919789473684211,-0.021627368421052624,0.01780631578947369,0.054479999999999994,-0.01005473684210527,0.049909473684210545,-0.16173263157894735,-0.27175578947368423,-0.004703157894736863,-0.059261052631578943,-0.04348421052631582,0.0934526315789474,-0.20824842105263155,0.25279999999999997,0.19674947368421053,0.2934673684210526,0.23015157894736843,0.01595157894736844,0.20686736842105263,-0.05665894736842106,0.28009684210526314,-0.11838947368421053,0.1378442105263158,0.14497894736842107,0.1933284210526316,-0.02672210526315789,0.47748842105263156,0.024410526315789473,0.14126315789473687,-0.024538947368421014,-0.03233894736842103,0.4798063157894738,-0.09066315789473683,0.1905578947368421,0.2589284210526316,0.04641473684210526,-0.1814842105263158,-0.11718105263157895,-0.24856210526315792,-0.3222863157894737,-0.17657263157894734,-0.17253052631578944,-0.06148000000000001,-0.026168421052631573,0.05543157894736839,0.09561684210526314,-0.14979789473684213,-0.3192947368421053,0.25842736842105263,0.07942315789473679,-0.19473263157894735,-0.20745052631578947,0.06551789473684212,-0.4982463157894737,0.0660526315789474,-0.3204968421052632
0.05859375,0.20925894736842104,0.16932421052631577,0.2709978947368421,-0.10555368421052633,0.24666526315789475,-0.7190231578947368,-0.7432799999999999,-0.13431368421052634,0.04110105263157894,0.03825052631578948,-0.0014547368421052571,-0.13705894736842103,-0.2676421052631579,-0.04170947368421054,-0.05721894736842104,-0.324141052631579,-0.0936,-0.19178105263157896,0.20346736842105267,0.22036631578947366,0.26262315789473684,0.24558105263157895,0.001566315789473702,0.312741052631579,-0.02067157894736842,0.34282736842105266,-0.18417894736842105,0.15636421052631577,0.13160842105263157,0.26321684210526314,-0.08944421052631579,0.5628105263157894,-0.051656842105263154,0.14024842105263158,-0.03277684210526317,-0.0693305263157895,-0.2952694736842104,-0.12149894736842105,0.09803368421052629,0.2270421052631579,0.07109263157894735,-0.1188042105263158,-0.06782736842105262,-0.2135957894736842,-0.28629473684210527,-0.14777263157894738,-0.13653684210526318,-0.05121894736842107,-0.008711578947368393,0.21374105263157897,0.07510105263157897,-0.11074947368421055,-0.29769894736842106,-1.0768568421052631,-0.9711557894736842,-0.15465684210526315,-0.17045263157894738,0.17243368421052632,-0.37383789473684215,0.1966147368421053,-0.3739157894736842
0.0625,0.25548,0.1662315789473684,0.3491115789473684,-0.2319873684210526,0.25078526315789473,0.024185263157894737,-0.013421052631578941,-0.06851789473684208,0.008202105263157898,0.08038315789473688,-0.03746526315789473,-0.11857263157894736,-0.2378442105263158,-0.06536421052631577,-0.06749473684210525,0.14564000000000005,0.1345684210526316,-0.16297684210526317,0.24355157894736837,0.2738357894736842,0.2338778947368421,0.32469894736842103,-0.009743157894736827,0.3435873684210526,0.009141052631578933,0.33561473684210524,-0.10399368421052628,0.22420631578947367,0.12132421052631578,0.3156568421052631,-0.10278526315789474,0.5977431578947369,-0.022869473684210526,0.16695578947368422,0.05150526315789472,-0.2142778947368421,-0.48442736842105255,-0.052602105263157874,-0.010924210526315816,0.23218105263157895,0.08754526315789474,-0.05094947368421053,0.003092631578947371,-0.15400842105263157,-0.24519157894736843,-0.1230905263157895,-0.08104210526315789,-0.07895368421052631,0.014974736842105285,0.27027368421052633,0.09975157894736843,-0.061378947368421075,-0.2267642105263158,0.2399536842105263,0.1431368421052632,-0.10526736842105268,-0.13445684210526315,0.25980631578947366,-0.0808842105263158,0.2942736842105263,-0.2588063157894737
0.06640625,0.30384,0.19196000000000002,0.4056863157894737,-0.2710526315789474,0.2888063157894737,-0.02515368421052632,0.0030399999999999954,-0.0140421052631579,0.1788357894736842,0.09170105263157896,-0.01792210526315791,-0.08259368421052632,-0.18437894736842106,-0.027322105263157898,-0.07161684210526315,-0.2233747368421053,0.13354947368421055,-0.11364842105263159,0.28259157894736847,0.3427157894736842,0.19068842105263156,0.38639789473684205,-0.06421684210526316,0.2603347368421053,0.043084210526315794,0.27497052631578944,-0.011498947368420996,0.2580968421052632,0.10384631578947369,0.30329052631578945,-0.05344421052631579,0.5443052631578947,0.0038673684210526593,0.18132842105263158,0.19955578947368421,-0.2708210526315789,-0.14931789473684193,0.013149473684210513,-0.06233894736842103,0.26098947368421055,0.13897263157894738,0.062155789473684206,0.1017915789473684,-0.11182947368421049,-0.16190526315789475,-0.09840842105263156,-0.00289473684210527,-0.06353684210526314,0.09201894736842105,0.1941978947368421,0.17273894736842108,-0.029547368421052635,-0.10855789473684212,-0.0067578947368421086,-0.005903157894736852,-0.025126315789473698,-0.058393684210526334,0.19607157894736843,0.1514610526315789,0.26548210526315785,-0.07275789473684209
0.0703125,0.3305621052631579,0.20017473684210524,0.3305978947368421,-0.2165768421052632,0.3206821052631579,-0.02619157894736842,0.013315789473684208,0.13192631578947367,0.12230105263157895,0.1461936842105263,0.0036800000000000136,-0.03734947368421052,-0.1237178947368421,0.05902736842105262,0.011665263157894719,0.05622105263157895,0.2466105263157895,-0.07971368421052633,0.3411978947368421,0.3817978947368421,0.17220421052631582,0.4295894736842105,-0.1207515789473684,0.19762105263157895,0.012218947368421055,0.21635578947368422,-0.0032547368421052816,0.28276842105263156,0.06580210526315788,0.27044421052631584,-0.03702526315789475,0.4281578947368421,0.04600842105263158,0.18238315789473686,0.2920463157894737,-0.12792631578947367,0.1601157894736841,0.04399789473684209,-0.013997894736842105,0.2712484210526316,0.23453894736842104,0.242021052631579,0.21485684210526315,-0.0275663157894737,-0.04474947368421054,-0.05007578947368421,0.11429263157894737,-0.022435789473684225,0.23595999999999998,0.05954736842105263,0.30842526315789476,0.047581052631578934,0.062071578947368415,-0.14762526315789473,0.48133473684210526,0.09824210526315791,0.019728421052631572,0.07065263157894737,0.23781894736842105,0.2685810526315789,0.07424842105263156
0.07421875,0.29355157894736844,0.17549684210526317,0.25455578947368424,-0.007903157894736876,0.3052673684210527,-0.09506947368421051,-0.13162105263157894,0.7795305263157895,0.4851915789473684,0.22225052631578945,0.05302736842105261,0.008901052631578954,-0.03014526315789474,0.1577242105263158,0.1206021052631579,0.49310315789473685,0.23941684210526315,-0.032425263157894735,0.3730863157894737,0.37045894736842105,0.1351705263157895,0.42960421052631576,-0.17835368421052633,0.20481894736842104,-0.041221052631578936,0.15880210526315788,-0.11943789473684212,0.25809894736842104,0.04835789473684209,0.2662989473684211,-0.07401894736842106,0.35824000000000006,0.04393894736842105,0.1525494736842105,0.4483263157894737,0.10642526315789477,-0.022865263157894743,-0.05364631578947369,0.05280210526315794,0.2496757894736842,0.3383873684210526,0.40238526315789475,0.33407157894736844,0.039280000000000016,0.061151578947368425,0.04244421052631578,0.23762736842105264,0.0721621052631579,0.4436126315789473,-0.003168421052631611,0.4574652631578947,0.17296631578947366,0.2111515789473684,0.19264631578947372,0.17295368421052632,0.2267115789473684,0.09887789473684211,-0.010526315789473684,0.22133684210526314,0.2603347368421053,0.1482757894736842
0.078125,0.2729621052631579,0.13541263157894737,0.13325052631578949,0.1535010526315789,0.2559242105263158,0.020044210526315796,0.07293894736842105,0.0764021052631579,0.19017263157894734,0.2952273684210526,0.0900336842105263,0.05206526315789473,0.019189473684210544,0.22658315789473688,0.21105684210526315,0.32452631578947366,0.4553073684210526,-0.004684210526315789,0.39566736842105266,0.3458084210526316,0.13927157894736839,0.4439852631578947,-0.19479578947368423,0.3004147368421053,-0.07718526315789472,0.06527157894736843,-0.2078084210526316,0.24371578947368422,0.038063157894736833,0.32386105263157894,-0.12642315789473685,0.39524631578947367,0.014098947368421037,0.11967157894736843,0.623077894736842,0.20205473684210526,-0.523482105263158,-0.16672,0.09697894736842105,0.22602736842105264,0.3815368421052632,0.45789473684210524,0.3361726315789474,0.09169052631578949,0.1413347368421053,0.10617473684210525,0.3630147368421053,0.10811999999999997,0.6152484210526316,0.05543157894736839,0.5500105263157895,0.24595578947368416,0.26355789473684216,0.6233852631578948,0.7455200000000001,0.27606947368421053,0.15029263157894737,0.007966315789473658,0.18846105263157895,0.2562084210526316,0.21714105263157896
0.08203125,0.2462652631578947,0.0613894736842105,0.08184210526315791,0.13704631578947368,0.19320631578947367,0.04680210526315789,-0.05966736842105264,0.2552778947368421,0.014362105263157891,0.3229978947368421,0.0982442105263158,0.0880357894736842,0.04075368421052632,0.1854484210526316,0.25322526315789473,0.5784273684210526,0.2897915789473684,0.013802105263157892,0.27232,0.33859999999999996,0.1475284210526316,0.4737873684210526,-0.18141894736842107,0.40013894736842104,-0.10803157894736842,0.000492631578947359,-0.22737263157894738,0.26426736842105264,0.03293473684210527,0.40097684210526313,-0.1593263157894737,0.5165515789473684,0.0017852631578947195,0.09604842105263157,0.7094126315789474,0.05607368421052631,-0.7444926315789474,-0.27259578947368424,0.0024378947368420925,0.2034021052631579,0.2736063157894737,0.2697578947368421,0.14493894736842103,0.09377684210526314,0.15573052631578946,0.15547789473684212,0.40109894736842105,0.14102105263157894,0.6646526315789473,0.12942315789473682,0.5541094736842105,0.25314947368421054,0.1731221052631579,0.6449389473684211,0.9860736842105263,0.20307789473684212,0.14821684210526317,0.10768631578947369,0.1452842105263158,0.2171557894736842,0.19452842105263157
0.0859375,0.2226147368421053,-0.00950947368421053,0.0931726315789474,-0.0870547368421053,0.11715368421052633,0.09612631578947367,0.06881894736842105,0.2532189473684211,0.13670526315789472,0.2777578947368421,0.06534315789473684,0.08085894736842104,-0.01577263157894737,0.14845052631578948,0.20181894736842104,0.4571178947368421,0.48611999999999994,0.006625263157894736,0.042080000000000006,0.3088063157894737,0.09407368421052632,0.48612421052631577,-0.17832000000000003,0.37649894736842104,-0.1573894736842105,-0.1063915789473684,-0.17903157894736846,0.28585263157894736,0.05244,0.44723999999999997,-0.13158105263157893,0.6542863157894737,-0.009509473684210526,0.10631999999999998,0.5994568421052632,-0.22557263157894739,-0.6067642105263157,-0.36613894736842106,-0.1661663157894737,0.1797642105263158,-0.007033684210526333,-0.08384421052631578,-0.17167578947368425,0.04236000000000002,0.047810526315789505,0.15961052631578948,0.37537263157894735,0.11324842105263158,0.6132147368421053,0.15101894736842106,0.45028210526315793,0.12878526315789474,-0.01193052631578946,0.8896042105263158,1.0662736842105263,0.008808421052631557,0.0660042105263158,0.1929915789473684,0.11444210526315791,0.09174526315789472,0.1575178947368421
0.08984375,0.1424378947368421,-0.09175368421052632,0.05513263157894737,-0.43658315789473684,0.030791578947368437,0.5381726315789473,0.4974863157894737,0.3559831578947369,0.3546715789473684,0.19038526315789472,0.008810526315789475,0.08498947368421052,-0.05280000000000001,0.14433894736842104,0.1637936842105263,0.48077473684210525,0.4265263157894737,-0.03654315789473684,-0.26016,0.23991157894736842,0.020035789473684222,0.3884631578947368,-0.21637684210526315,0.18530315789473684,-0.19028210526315786,-0.21534947368421056,-0.10090105263157897,0.27351368421052635,0.032924210526315785,0.4040442105263158,-0.10897684210526316,0.6954294736842106,-0.030048421052631585,0.08781052631578948,0.2797221052631579,-0.43428,-0.49369684210526327,-0.4484147368421053,-0.3347094736842105,0.12219578947368423,-0.3133536842105263,-0.4138126315789474,-0.5478863157894737,0.011526315789473695,-0.02520631578947369,0.15447368421052632,0.3095873684210526,0.12045894736842104,0.5546294736842106,0.0873073684210526,0.33208,-0.02952210526315788,-0.1003242105263158,0.8012126315789474,1.2728652631578947,-0.19268842105263162,0.005320000000000017,0.15703157894736844,0.023999999999999976,-0.05731578947368418,0.04954947368421051
0.09375,0.011871578947368441,-0.18939789473684207,-0.018884210526315795,-0.6842989473684211,-0.09977052631578948,0.09716421052631578,0.10993473684210528,0.25218315789473683,0.2343305263157895,0.12458526315789473,0.004701052631578964,0.13224631578947368,-0.0445557894736842,0.23788210526315787,0.18638315789473683,0.44682315789473687,0.16339157894736844,-0.03038947368421052,-0.4965684210526316,0.08163999999999999,-0.09198526315789474,0.24043578947368419,-0.28009684210526314,-0.040852631578947377,-0.22521263157894736,-0.3017578947368421,-0.13586947368421054,0.23137473684210524,0.007227368421052629,0.3053852631578947,-0.07604842105263156,0.6357831578947368,-0.07527368421052628,0.06210105263157896,-0.0666757894736842,-0.4137073684210526,-0.7342084210526316,-0.5090442105263158,-0.44780421052631575,0.021469473684210528,-0.4644715789473684,-0.5053052631578947,-0.7267705263157895,0.042355789473684215,-0.02315789473684212,0.24391157894736842,0.3465873684210527,0.22529894736842104,0.6286294736842105,0.06674736842105261,0.3300168421052631,-0.0665284210526316,-0.032494736842105285,0.18957052631578947,0.10408210526315789,-0.26053473684210526,0.02690736842105265,0.001808421052631564,-0.10349684210526316,-0.10050947368421052,0.005353684210526342
0.09765625,-0.18959578947368422,-0.33128210526315793,-0.18232631578947364,-0.7490694736842105,-0.2457284210526316,0.19174526315789472,0.04928421052631579,0.3765726315789474,0.1490442105263158,0.17290315789473684,0.02833684210526316,0.20627789473684208,0.03976421052631579,0.42394947368421054,0.32515789473684215,0.5619747368421052,0.1356105263157895,0.031301052631578945,-0.5572273684210526,-0.0746336842105263,-0.21946947368421052,0.023541052631578952,-0.3520357894736842,-0.23719368421052628,-0.2899978947368421,-0.3983473684210526,-0.251,0.1296,-0.056530526315789496,0.20464631578947368,-0.11614947368421052,0.5237389473684211,-0.1328715789473684,-0.01292631578947368,-0.23115999999999998,-0.2574715789473684,-1.1094231578947369,-0.6385684210526316,-0.5752715789473685,-0.1430084210526316,-0.33392,-0.22465894736842107,-0.59828,0.20887789473684212,0.12695578947368422,0.43717263157894737,0.5367642105263157,0.5326631578947368,0.9051684210526315,0.3236989473684211,0.5325347368421053,0.11131789473684209,0.2604947368421053,0.13509263157894735,0.08557894736842105,-0.05906947368421053,0.19141473684210528,-0.13081052631578946,-0.16618105263157898,0.023901052631578955,0.04033473684210524
0.1015625,-0.43320421052631586,-0.4988294736842105,-0.3591578947368421,-0.6606568421052632,-0.42665473684210525,0.12492421052631579,0.13669684210526314,0.24705052631578947,0.25080842105263157,0.2921747368421052,0.10131157894736843,0.33066526315789474,0.1826084210526316,0.6213052631578947,0.5400336842105263,0.2402421052631579,0.40186947368421055,0.14230315789473685,-0.47707368421052637,-0.23909473684210525,-0.33253473684210527,-0.14093052631578948,-0.3839221052631579,-0.30916631578947373,-0.38661052631578946,-0.42918736842105265,-0.4134063157894737,0.01858526315789473,-0.11305052631578948,0.1696778947368421,-0.17989684210526313,0.4692273684210526,-0.16779578947368418,-0.09515578947368421,-0.19105263157894734,-0.15774315789473686,-1.1577494736842104,-0.7660273684210527,-0.7706063157894737,-0.30956,0.07624421052631576,0.24613473684210527,-0.20251157894736838,0.4740842105263158,0.39314105263157895,0.7301515789473684,0.845141052631579,0.9490105263157895,1.2536442105263157,0.7914547368421052,0.8738400000000001,0.5214821052631579,0.6798694736842105,0.02920421052631581,0.4227557894736842,0.3336526315789473,0.4391284210526316,-0.12156210526315792,-0.13329052631578947,0.3148021052631578,0.20068000000000005
0.10546875,-0.6316231578947369,-0.6335178947368421,-0.5164421052631579,-0.5918021052631579,-0.5715894736842105,0.5566652631578948,0.505698947368421,0.3087157894736842,0.33508210526315785,0.43195157894736846,0.2318526315789474,0.4725389473684211,0.3481094736842105,0.7600968421052632,0.6747031578947368,0.4509515789473684,0.5416568421052631,0.25230947368421053,-0.3393073684210526,-0.3511684210526316,-0.4137578947368421,-0.2447578947368421,-0.4342757894736842,-0.2865515789473685,-0.49146736842105265,-0.43948421052631576,-0.4935873684210526,-0.04308842105263158,-0.11409052631578949,0.1891936842105263,-0.18605473684210524,0.4754378947368421,-0.15339368421052632,-0.15785894736842107,-0.10469894736842109,-0.18754315789473683,-0.7630168421052631,-0.8996526315789474,-0.99672,-0.42673263157894736,0.5604042105263158,0.6963726315789474,0.20867368421052632,0.7393052631578948,0.6409115789473684,1.0313094736842106,1.093917894736842,1.294376842105263,1.5198736842105263,1.3012905263157895,1.2233178947368422,0.9531999999999999,0.9893115789473684,0.6100147368421053,0.7712210526315789,0.6718378947368421,0.6766021052631578,0.06758526315789475,-0.05209052631578949,0.60776,0.38469684210526317
0.109375,-0.7549915789473683,-0.7260273684210526,-0.6860484210526315,-0.7336484210526316,-0.6672105263157895,0.22358947368421056,0.21070526315789473,0.23675157894736842,0.23433473684210526,0.4597094736842105,0.2997136842105263,0.555778947368421,0.41185894736842105,0.7981178947368421,0.6736421052631579,0.32349894736842105,0.5580842105263158,0.31397473684210525,-0.3516421052631579,-0.3912273684210526,-0.44048000000000004,-0.2643094736842105,-0.45998736842105264,-0.27011578947368414,-0.5942715789473684,-0.4477136842105264,-0.5552589473684211,-0.060553684210526315,-0.1315621052631579,0.2025663157894737,-0.16963789473684215,0.49086736842105266,-0.09280210526315785,-0.18666736842105264,-0.11603157894736846,-0.26876210526315786,-0.3641431578947368,-1.0970084210526314,-1.1961705263157896,-0.48633894736842104,0.7845178947368422,0.8104778947368422,0.3690357894736842,0.8554673684210526,0.6840947368421052,1.1999073684210526,1.1371052631578948,1.4403494736842104,1.4828884210526314,1.506896842105263,1.3487263157894736,1.158778947368421,0.9800568421052631,0.3283284210526315,0.3230357894736842,0.8198526315789474,0.7259557894736842,0.28346105263157895,-0.0016968421052631637,0.7650547368421052,0.45666947368421046
0.11328125,-0.7878442105263158,-0.7609768421052632,-0.8505052631578948,-1.1108926315789474,-0.7370968421052632,0.17941263157894738,0.15930315789473684,0.31079999999999997,0.26005263157894737,0.3702694736842105,0.30278105263157895,0.5321242105263159,0.36969684210526316,0.7528842105263158,0.5369473684210526,0.1518315789473684,0.3699536842105263,0.2934273684210526,-0.5654526315789473,-0.39843578947368424,-0.446658947368421,-0.25298736842105257,-0.44355157894736846,-0.28553684210526314,-0.5819284210526315,-0.5176000000000001,-0.6241263157894736,-0.03382526315789475,-0.11305473684210526,0.1902484210526316,-0.11820842105263162,0.4486884210526316,-0.05371368421052628,-0.17328631578947368,-0.1674063157894737,-0.3602505263157895,-0.49776631578947367,-1.3159663157894737,-1.2989621052631577,-0.4863663157894737,0.5881852631578948,0.501077894736842,0.1377515789473684,0.7311157894736842,0.5278631578947369,1.0898926315789472,0.8903957894736841,1.275898947368421,1.1261621052631579,1.2673852631578948,1.1688547368421054,0.9902168421052632,0.6171705263157895,0.48868842105263155,-0.11281263157894739,0.6183957894736842,0.5871494736842106,0.31634105263157897,-0.053101052631578924,0.699298947368421,0.387757894736842
0.1171875,-0.7611305263157896,-0.7249747368421052,-1.0273284210526317,-1.5076926315789474,-0.7514842105263158,0.13930105263157896,0.030808421052631596,0.20387999999999998,0.03081052631578948,0.24384,0.28325894736842105,0.42934736842105264,0.26383368421052633,0.6490926315789474,0.3704042105263158,0.12608210526315788,0.17156,0.20706526315789475,-0.91084,-0.37582736842105263,-0.4250589473684211,-0.19645684210526315,-0.4158042105263157,-0.3513031578947368,-0.43698315789473685,-0.6687157894736842,-0.7516231578947369,-0.016372631578947375,-0.08118947368421052,0.16454105263157898,-0.07503578947368422,0.33664,-0.052684210526315785,-0.13835578947368424,-0.16743157894736846,-0.4034189473684211,-1.0025284210526315,-1.525673684210526,-1.3174778947368422,-0.4401094736842105,0.09886526315789473,-0.10540842105263158,-0.34436842105263155,0.4298968421052632,0.19170736842105268,0.7774189473684211,0.47613894736842105,0.9017284210526316,0.6276105263157895,0.7348947368421053,0.7412189473684211,0.5204315789473685,0.042564210526315795,0.4167452631578947,-0.49523157894736847,0.21849052631578947,0.346621052631579,0.14160421052631578,-0.1816021052631579,0.4227431578947369,0.16267368421052633
0.12109375,-0.6799178947368422,-0.6561073684210527,-1.163018947368421,-1.698898947368421,-0.6887642105263159,0.28427368421052635,0.24564,-0.10039999999999999,0.16032210526315788,0.12049263157894738,0.2483178947368421,0.3069957894736842,0.15588631578947368,0.48050315789473685,0.22546315789473687,-0.2131326315789474,-0.2437242105263158,0.15566105263157892,-1.2079473684210527,-0.3326694736842105,-0.3644336842105263,-0.16664000000000007,-0.3828631578947368,-0.38112210526315793,-0.22626105263157892,-0.8485915789473685,-0.8903642105263158,-0.019427368421052645,-0.07195578947368421,0.12445052631578947,-0.06577473684210527,0.19788631578947366,-0.03007368421052634,-0.12600210526315792,-0.09237894736842107,-0.43016210526315796,-1.3386673684210526,-1.643922105263158,-1.2567936842105263,-0.3918105263157895,-0.4336336842105264,-0.726317894736842,-0.8213368421052631,0.08964,-0.12902315789473684,0.36622947368421055,0.02997894736842105,0.4524947368421053,0.1598863157894737,0.2363621052631579,0.2817052631578947,-0.016170526315789465,-0.5166610526315789,0.2677052631578948,-0.8046484210526316,-0.20809473684210522,0.14306526315789475,-0.18837263157894735,-0.32138947368421056,0.11128421052631575,-0.039867368421052644
0.125,-0.5791789473684211,-0.5646189473684211,-1.2123557894736843,-1.5405936842105263,-0.6014126315789473,0.2051136842105263,-0.03396,0.1494063157894737,-0.1408757894736842,0.03003157894736842,0.19074947368421055,0.1918736842105263,0.10961473684210526,0.2944336842105263,0.12471789473684214,-0.2747936842105263,-0.5561852631578947,0.11558947368421053,-1.3374610526315789,-0.3049115789473684,-0.32331578947368417,-0.12038736842105265,-0.29037684210526316,-0.3471642105263158,-0.05149684210526314,-0.9184947368421051,-0.9448757894736842,-0.08010315789473683,-0.08016842105263157,0.047328421052631596,-0.08326736842105263,0.09202315789473685,-0.03622947368421053,-0.11880842105263158,-0.04406526315789469,-0.4846378947368421,-1.1680357894736841,-1.5667915789473683,-1.141661052631579,-0.38150526315789474,-0.74304,-1.1714084210526314,-1.146197894736842,-0.1015642105263158,-0.31510315789473686,0.025976842105263163,-0.27842526315789473,0.05984631578947368,-0.1639242105263158,-0.0545663157894737,-0.03698315789473686,-0.41089894736842103,-0.8713073684210526,-0.3809515789473684,-1.7154042105263159,-0.4301326315789473,0.07422105263157895,-0.5008652631578947,-0.3615221052631579,-0.09946315789473684,-0.14677263157894735
0.12890625,-0.46201684210526317,-0.45976842105263155,-1.0437747368421053,-1.1068273684210528,-0.49756,0.07866315789473685,0.0246421052631579,-0.14564631578947368,-0.20664631578947368,-0.07276631578947369,0.14656421052631577,0.10346315789473685,0.09726526315789476,0.1104042105263158,0.047623157894736846,-0.6428105263157894,-0.5469410526315789,0.11969684210526316,-1.3066273684210528,-0.2822694736842105,-0.2462105263157895,-0.1286105263157895,-0.19682526315789475,-0.2978694736842105,-0.0031999999999999655,-0.8290631578947367,-0.8358821052631579,-0.15205052631578947,-0.04930736842105262,-0.04312421052631577,-0.09151157894736843,0.04062526315789476,0.04190315789473687,-0.15581473684210526,-0.11088842105263157,-0.535018947368421,-0.7948715789473684,-1.315995789473684,-0.9802673684210527,-0.3414357894736842,-0.8396884210526315,-1.4417663157894736,-1.2664294736842105,-0.1704442105263158,-0.38499157894736846,-0.1806336842105263,-0.4686042105263158,-0.21566526315789475,-0.4280989473684211,-0.18511368421052632,-0.2692736842105263,-0.5661157894736842,-1.0676505263157896,-1.2773326315789473,-1.6228989473684212,-0.45685263157894734,0.07725263157894738,-0.5687157894736842,-0.3265305263157895,-0.23515157894736846,-0.17244842105263153
0.1328125,-0.3520105263157895,-0.3518421052631579,-0.798061052631579,-0.6041115789473684,-0.38449894736842105,-0.054959999999999974,-0.0874021052631579,-0.3306378947368421,-0.26933684210526315,-0.1827557894736842,0.1115978947368421,0.038717894736842125,0.11680842105263159,-0.09722315789473687,-0.05723368421052633,-0.9398842105263158,-1.1606315789473682,0.12896,-1.2202821052631578,-0.25866105263157896,-0.18964421052631578,-0.16251999999999997,-0.09816,-0.32869473684210526,-0.057654736842105266,-0.6347663157894737,-0.5079705263157894,-0.22914315789473685,-0.008204210526315791,-0.13150736842105262,-0.06372421052631581,0.03752421052631577,0.11487578947368421,-0.16095157894736842,-0.29901263157894736,-0.5257431578947368,-0.7640273684210527,-0.9315284210526316,-0.779821052631579,-0.2797284210526316,-0.9218968421052631,-1.6771789473684209,-1.365115789473684,-0.2074273684210526,-0.40555368421052634,-0.31324421052631585,-0.6227873684210526,-0.4510926315789473,-0.7437052631578948,-0.3341726315789474,-0.5406694736842105,-0.60724,-1.2115431578947369,-0.8866905263157895,-2.1491936842105264,-0.44042947368421054,0.12150315789473683,-0.48340210526315786,-0.2391642105263158,-0.30299789473684213,-0.25367578947368424
0.13671875,-0.22455368421052632,-0.2017621052631579,-0.4948547368421053,-0.1785305263157895,-0.22002736842105264,-0.03441052631578946,0.02361052631578948,-0.39954105263157896,-0.24365052631578946,-0.3420821052631579,0.0468442105263158,-0.05791157894736842,0.04383368421052631,-0.28634947368421054,-0.2402,-1.2184673684210527,-1.079416842105263,0.08988842105263158,-1.16168,-0.1979978947368421,-0.08892631578947369,-0.19029473684210527,-0.024141052631578983,-0.3512989473684211,-0.11830315789473682,-0.4281684210526316,-0.15437684210526317,-0.21884842105263155,0.05041052631578948,-0.19936,-0.03494526315789474,-0.0035936842105263414,0.1693557894736842,-0.10750315789473684,-0.3935578947368421,-0.41677684210526317,-1.2327789473684212,-0.5234526315789474,-0.5865957894736842,-0.19032000000000004,-1.1696315789473684,-2.031795789473684,-1.635477894736842,-0.3225515789473684,-0.5278715789473685,-0.5137031578947369,-0.9136778947368421,-0.7368568421052631,-1.231962105263158,-0.6723557894736842,-1.0566989473684212,-0.7419010526315789,-1.5230336842105263,-1.4571747368421053,-2.7629052631578945,-0.5668821052631579,0.04234736842105264,-0.40426526315789474,-0.18882736842105263,-0.44895368421052634,-0.5147873684210527
0.140625,-0.10735368421052634,-0.06401052631578946,-0.2542884210526316,0.1678778947368421,-0.05862736842105263,-0.06934526315789472,-0.1727494736842105,-0.46224842105263153,-0.5355915789473684,-0.4654526315789474,-0.0765536842105263,-0.19976842105263154,-0.13706105263157897,-0.4950484210526316,-0.5475768421052631,-1.6656126315789475,-1.729098947368421,-0.022166315789473704,-1.0784273684210526,-0.11472842105263158,0.02621473684210527,-0.18101052631578946,0.03753894736842109,-0.4057789473684211,-0.14610315789473688,-0.3397663157894737,0.1478589473684211,-0.1407368421052632,0.09356842105263159,-0.2363578947368421,-0.052397894736842095,-0.07659789473684209,0.1344210526315789,-0.015997894736842107,-0.38538736842105265,-0.3139936842105263,-1.5832968421052631,-0.14718526315789476,-0.36866315789473686,-0.07105894736842105,-1.7319494736842107,-2.572536842105263,-2.1227431578947367,-0.545618947368421,-0.8177284210526315,-0.8354378947368422,-1.3793663157894736,-1.1675852631578947,-1.9094063157894736,-1.1986694736842105,-1.8256294736842105,-1.1078505263157896,-2.0318863157894738,-2.518058947368421,-3.9296484210526317,-0.8844884210526316,-0.18792842105263158,-0.4577052631578947,-0.2278526315789474,-0.6853936842105264,-0.9845452631578947
0.14453125,0.03657894736842104,0.07681052631578948,-0.010650526315789463,0.4988905263157895,0.12948210526315787,-0.32223368421052634,-0.20358526315789474,-0.9710757894736842,-0.5283642105263158,-0.5744168421052632,-0.2852147368421053,-0.3704,-0.3909431578947369,-0.7037326315789474,-0.9433326315789473,-2.0624231578947367,-2.052917894736842,-0.19177894736842105,-0.9160147368421052,0.009658947368421074,0.11255578947368419,-0.15120210526315792,0.04165052631578941,-0.38419157894736844,-0.13477894736842108,-0.34693473684210524,0.2855915789473684,-0.02045263157894738,0.1202778947368421,-0.20245684210526316,-0.1264463157894737,-0.13310526315789473,0.020309473684210523,0.0919284210526316,-0.26812842105263157,-0.20403157894736837,-1.3283894736842106,0.1406505263157895,-0.11990947368421058,0.06155789473684211,-2.471044210526316,-3.1934126315789477,-2.741597894736842,-0.9218694736842106,-1.2649347368421051,-1.2805621052631577,-1.9879115789473685,-1.7360315789473684,-2.7297326315789476,-1.7764147368421053,-2.6695621052631577,-1.692778947368421,-2.679496842105263,-3.337362105263158,-4.78593052631579,-1.4108105263157895,-0.4952757894736842,-0.6951621052631579,-0.3347578947368421,-1.0677852631578948,-1.5509494736842107
0.1484375,0.2061515789473684,0.2145452631578947,0.20623789473684206,0.7856905263157895,0.29806105263157895,-0.30784210526315786,-0.39271368421052627,-0.8312484210526316,-0.8193052631578948,-0.7152547368421053,-0.564797894736842,-0.5667473684210526,-0.6705831578947368,-0.9576336842105263,-1.3863810526315792,-2.267993684210526,-2.903048421052632,-0.3747642105263158,-0.6693052631578947,0.13918315789473684,0.19068,-0.041214736842105235,0.028292631578947368,-0.2885978947368421,-0.14712842105263157,-0.4291810526315789,0.2249536842105263,0.05045894736842106,0.1028021052631579,-0.1829157894736842,-0.2569957894736842,-0.20301894736842108,-0.14826736842105262,0.20808631578947367,-0.23732421052631578,-0.17109894736842107,-0.6160063157894738,0.36883999999999995,0.1853978947368421,0.20444631578947367,-3.2420400000000003,-3.844098947368421,-3.3593894736842107,-1.3515663157894737,-1.7665747368421052,-1.826423157894737,-2.6334736842105264,-2.4113852631578947,-3.5510505263157897,-2.3777684210526315,-3.478564210526316,-2.3661094736842108,-3.3538357894736843,-4.277934736842106,-5.875572631578947,-1.9844463157894736,-0.8663768421052631,-0.9953284210526316,-0.5434463157894737,-1.4923810526315788,-2.0598
0.15234375,0.38706315789473683,0.38008210526315794,0.4138968421052631,0.8782147368421053,0.4378673684210526,-0.2903726315789473,-0.4266505263157895,-1.0183957894736841,-1.1348968421052632,-0.9650526315789473,-0.9225557894736842,-0.756898947368421,-0.993357894736842,-1.266016842105263,-1.8541094736842105,-2.464336842105263,-3.2679894736842106,-0.5525894736842105,-0.4194905263157895,0.26561894736842107,0.27089052631578947,0.05229684210526313,0.017993684210526325,-0.20741684210526312,-0.19232421052631576,-0.4703115789473684,0.07075157894736842,0.12242526315789476,0.07506736842105262,-0.23945894736842108,-0.38137894736842104,-0.25340421052631573,-0.3548968421052631,0.29237052631578947,-0.36892421052631585,-0.25128,0.018235789473684205,0.5240631578947369,0.5009915789473685,0.33292421052631577,-3.9327915789473686,-4.459867368421053,-3.936075789473684,-1.7822673684210526,-2.25488,-2.3269915789473683,-3.2615663157894734,-3.0877999999999997,-4.335383157894737,-3.031541052631579,-4.157016842105263,-3.0393810526315788,-4.0240484210526315,-5.276090526315789,-6.452246315789473,-2.5806273684210526,-1.2518842105263157,-1.2636063157894737,-0.7942547368421053,-1.8685768421052633,-2.509012631578947
0.15625,0.5742,0.5363094736842104,0.5505936842105263,0.7229684210526316,0.592082105263158,-0.4147578947368421,-0.6096336842105263,-0.9988484210526316,-1.204802105263158,-1.2672484210526316,-1.2658631578947368,-0.9553073684210527,-1.2555073684210527,-1.5887936842105264,-2.3146315789473686,-3.1438294736842103,-3.662707368421053,-0.7314673684210526,-0.3146294736842105,0.37972,0.37777684210526313,0.14276,0.06016631578947367,-0.16318526315789475,-0.19747157894736844,-0.45592210526315785,-0.1533221052631579,0.14607368421052633,0.07710315789473685,-0.32478105263157897,-0.4636126315789474,-0.36339368421052626,-0.5512568421052632,0.3838442105263158,-0.6002126315789473,-0.5637957894736843,0.1580273684210527,0.6176442105263157,0.7291852631578948,0.46350315789473684,-4.569117894736842,-5.12805052631579,-4.527147368421053,-2.200637894736842,-2.7369663157894735,-2.8060589473684208,-3.7940400000000003,-3.705578947368421,-5.046722105263158,-3.7706421052631582,-4.842656842105264,-3.6911221052631578,-4.694286315789474,-6.336947368421053,-7.369193684210527,-3.1717263157894737,-1.6702126315789474,-1.4383473684210526,-1.1807705263157895,-2.2252821052631577,-2.961338947368421
0.16015625,0.691381052631579,0.6874168421052631,0.5444294736842105,0.36831368421052635,0.7102631578947368,-0.5278378947368421,-0.6404378947368422,-1.4747894736842104,-1.4001073684210528,-1.5561326315789474,-1.6215557894736843,-1.163983157894737,-1.5186842105263159,-1.8982273684210527,-2.7381326315789476,-3.40904,-3.950534736842105,-0.9206105263157895,-0.4390294736842104,0.4958736842105263,0.5031936842105263,0.19935157894736844,0.14960631578947367,-0.19609052631578944,-0.1255178947368421,-0.42613894736842106,-0.3589347368421052,0.17793473684210526,0.12849473684210527,-0.4152252631578947,-0.4564252631578947,-0.48058526315789474,-0.7218715789473684,0.4691978947368421,-0.805778947368421,-1.0222484210526317,0.03671999999999991,0.6360947368421054,0.863861052631579,0.5899263157894737,-5.192069473684211,-5.842484210526315,-5.190162105263158,-2.6334294736842105,-3.2046863157894734,-3.244983157894737,-4.333722105263158,-4.2010736842105265,-5.696402105263158,-4.492256842105263,-5.6424315789473685,-4.286315789473684,-5.401526315789473,-6.245454736842105,-7.750562105263158,-3.785385263157895,-2.124597894736842,-1.6388252631578948,-1.716364210526316,-2.5059326315789474,-3.5524063157894736
0.1640625,0.8095684210526315,0.8436757894736842,0.3851263157894737,0.04760421052631576,0.8613873684210526,-1.5167389473684212,-1.7660947368421052,-1.186983157894737,-1.3692842105263157,-1.7370505263157896,-1.957677894736842,-1.3829326315789474,-1.814701052631579,-2.113042105263158,-3.115397894736842,-3.37612,-4.632079999999999,-1.1087094736842105,-0.7525473684210526,0.6480189473684211,0.6964421052631579,0.3062063157894737,0.3007347368421053,-0.2032842105263158,0.05742736842105263,-0.4775073684210527,-0.5881768421052632,0.2796926315789474,0.20973263157894734,-0.4214,-0.43380842105263157,-0.6265157894736842,-0.8401157894736843,0.6131115789473685,-0.8787810526315789,-1.5157031578947369,0.10462947368421056,0.6011705263157895,0.8721094736842105,0.759522105263158,-5.822193684210526,-6.6134315789473685,-5.852176842105264,-3.0168421052631578,-3.675494736842105,-3.632515789473684,-4.868286315789474,-4.559856842105263,-6.299825263157895,-5.0679452631578945,-6.573762105263158,-4.808522105263157,-6.084088421052631,-8.46997052631579,-9.949353684210527,-4.370313684210526,-2.5573852631578946,-1.877322105263158,-2.3423894736842104,-2.835892631578947,-4.295578947368421
0.16796875,0.9483705263157894,1.0143094736842104,0.19698526315789472,-0.0438842105263158,1.0197031578947369,-0.49288,-0.66308,-1.2815073684210527,-1.4638126315789475,-1.8110547368421053,-2.2979326315789472,-1.554623157894737,-2.0634905263157894,-2.2754947368421052,-3.444347368421053,-3.4162442105263158,-4.322661052631579,-1.2906547368421053,-1.0732989473684211,0.819701052631579,0.9071600000000001,0.4635094736842105,0.48575157894736837,-0.14777052631578944,0.25688,-0.5155642105263158,-0.7546863157894736,0.39070947368421055,0.3094484210526316,-0.3216778947368421,-0.4471957894736842,-0.6656105263157894,-0.9048610526315789,0.7590842105263158,-0.8592378947368421,-1.9073305263157894,0.49004000000000003,0.5867705263157895,0.8659157894736842,0.9836168421052632,-6.3989010526315795,-7.31144,-6.454574736842105,-3.3519684210526313,-4.098,-3.94812,-5.314387368421052,-4.7808631578947365,-6.837425263157895,-5.42156,-7.4639810526315795,-5.250543157894737,-6.652553684210526,-7.412212631578948,-8.605816842105263,-4.889425263157895,-2.867816842105263,-2.125046315789474,-2.956054736842105,-3.203901052631579,-5.122105263157895
0.171875,1.083018947368421,1.1839284210526315,0.10551578947368422,0.0619894736842105,1.202698947368421,-0.5052063157894736,-0.8028905263157895,-0.9782505263157895,-1.619061052631579,-1.8244147368421053,-2.6094021052631575,-1.6779515789473685,-2.2413073684210527,-2.389566315789474,-3.6931073684210523,-3.346338947368421,-4.554987368421053,-1.4479705263157894,-1.3302526315789474,1.0201200000000001,1.0757642105263159,0.6855452631578948,0.6666631578947368,0.009496842105263113,0.4090421052631579,-0.5669347368421053,-0.8811326315789473,0.5541473684210526,0.3937389473684211,-0.1880526315789474,-0.46975368421052627,-0.6327136842105263,-0.9973936842105263,0.9039999999999999,-0.8592694736842106,-2.0276,0.8107873684210527,0.6083557894736842,0.8947052631578948,1.1768800000000001,-6.797732631578948,-7.744206315789474,-6.868823157894736,-3.6151515789473683,-4.369370526315789,-4.159875789473684,-5.612486315789474,-4.945317894736842,-7.2311621052631585,-5.579835789473684,-8.121856842105263,-5.541433684210526,-6.940374736842105,-6.8262442105263155,-8.655174736842104,-5.22146947368421,-3.093955789473684,-2.3255052631578947,-3.3744421052631575,-3.5852505263157894,-5.822132631578947
0.17578125,1.2392947368421052,1.3011389473684212,0.16922315789473685,0.21309894736842103,1.352778947368421,-0.504181052631579,-0.7103768421052631,-1.3843431578947367,-1.485418947368421,-1.8706526315789473,-2.8108926315789473,-1.7653621052631578,-2.3307263157894735,-2.519101052631579,-3.809286315789474,-3.3617684210526315,-4.435743157894737,-1.535322105263158,-1.4556715789473684,1.1815263157894738,1.1908652631578946,0.8726378947368421,0.7683936842105263,0.16677473684210525,0.4223726315789474,-0.5083494736842105,-0.9191536842105263,0.6569473684210526,0.45849052631578946,-0.09964631578947368,-0.49856,-0.5432547368421052,-1.0919726315789473,0.994458947368421,-1.085395789473684,-1.9916126315789473,0.8354547368421053,0.675178947368421,0.9111494736842105,1.3403284210526314,-6.961178947368421,-7.910698947368421,-7.039467368421052,-3.745658947368421,-4.471130526315789,-4.2657494736842105,-5.719404210526316,-5.107728421052631,-7.4069242105263156,-5.816290526315789,-8.481637894736842,-5.667905263157895,-6.985604210526315,-6.676193684210526,-8.388926315789472,-5.3715557894736845,-3.194698947368421,-2.45604,-3.639661052631579,-3.947130526315789,-6.293981052631579
0.1796875,1.3112294736842107,1.3473747368421054,0.30902315789473683,0.2511326315789474,1.4175136842105263,-0.2985768421052632,-0.6898252631578947,-0.63388,-1.2191768421052633,-2.008423157894737,-2.8900547368421052,-1.8085305263157896,-2.3060863157894738,-2.6403894736842104,-3.7835957894736842,-2.631873684210526,-4.330888421052632,-1.556894736842105,-1.5892968421052631,1.2349915789473684,1.247437894736842,0.9178673684210527,0.7972168421052631,0.2377305263157895,0.3781789473684211,-0.4662210526315789,-0.8852252631578946,0.7145115789473685,0.5386821052631579,-0.08834315789473683,-0.4502442105263158,-0.5216947368421053,-1.1896126315789475,1.0458673684210527,-1.4205010526315789,-2.0060336842105264,0.6237347368421053,0.7255557894736843,0.8731157894736843,1.4050863157894737,-6.963256842105263,-7.834650526315789,-7.071364210526316,-3.776503157894737,-4.436168421052631,-4.285267368421053,-5.6053031578947365,-5.249587368421053,-7.374027368421053,-6.104101052631579,-8.540223157894737,-5.672006315789473,-6.833465263157895,-6.816997894736843,-8.503033684210527,-5.350976842105263,-3.1967747368421056,-2.5413536842105264,-3.7753473684210523,-4.221606315789473,-6.510867368421052
0.18359375,1.2762905263157895,1.307296842105263,0.35219789473684204,0.1576,1.3774568421052633,-0.3746652631578948,-0.6568905263157895,-0.9680021052631579,-1.4556,-2.133835789473684,-2.8170589473684213,-1.831157894736842,-2.19712,-2.6979726315789474,-3.5913515789473687,-3.0656736842105263,-4.245555789473684,-1.5486821052631579,-1.8020926315789474,1.199021052631579,1.2258315789473684,0.8592631578947368,0.7735747368421052,0.19659157894736842,0.21987157894736842,-0.4220084210526316,-0.8030168421052631,0.6734063157894736,0.5458736842105264,-0.10581894736842105,-0.3906357894736842,-0.5823178947368421,-1.33148,1.04996,-1.7381368421052632,-2.1417052631578946,0.5867263157894737,0.6607747368421053,0.7754610526315789,1.3763010526315789,-6.8850842105263155,-7.612621052631579,-6.956204210526316,-3.7086589473684213,-4.261458947368421,-4.266785263157895,-5.362688421052631,-5.3164105263157895,-7.08310947368421,-6.372427368421052,-8.44053894736842,-5.554821052631579,-6.559012631578947,-6.457195789473684,-7.741324210526316,-5.218362105263158,-3.1525515789473686,-2.68014947368421,-3.850395789473684,-4.3994,-6.560208421052632
0.1875,1.1673284210526316,1.180858947368421,0.22781052631578944,-0.017162105263157888,1.2335136842105263,-0.40964,-0.638418947368421,-0.9926821052631579,-1.2973052631578947,-2.18832,-2.6474694736842106,-1.8249705263157894,-2.0531642105263157,-2.6743305263157895,-3.3004252631578948,-2.9916736842105265,-3.817938947368421,-1.4798147368421053,-2.0765536842105266,1.1023789473684211,1.1579936842105263,0.7266568421052633,0.6717915789473684,0.05578315789473686,0.07697684210526318,-0.50424,-0.7557073684210527,0.6261242105263157,0.5540884210526316,-0.15927578947368423,-0.3618505263157895,-0.7026231578947368,-1.4260294736842105,1.0170694736842105,-1.7926147368421053,-2.3432147368421052,0.7553115789473683,0.5795578947368422,0.6377052631578947,1.2642568421052633,-6.7432378947368425,-7.341261052631579,-6.799972631578948,-3.593541052631579,-4.003425263157895,-4.201012631578948,-5.033732631578948,-5.273246315789473,-6.669886315789474,-6.434115789473684,-8.25548842105263,-5.362578947368421,-6.227995789473684,-6.380117894736842,-7.609703157894737,-5.021004210526315,-3.0076273684210526,-2.851831578947368,-3.9244315789473685,-4.459027368421053,-6.5211347368421055
0.19140625,1.0079873684210525,1.0194905263157894,0.0026989473684210386,-0.1333368421052631,1.0916505263157894,-0.36132421052631575,-0.52944,-0.8641684210526316,-1.1503052631578947,-2.0937284210526315,-2.487101052631579,-1.7632947368421055,-1.8877221052631579,-2.56432,-3.0043873684210527,-2.8148526315789475,-3.545503157894737,-1.413018947368421,-2.289343157894737,0.9790021052631579,1.02848,0.6084463157894737,0.528898947368421,-0.06244210526315789,-0.1275473684210526,-0.6707536842105263,-0.8420884210526315,0.5767747368421053,0.5109347368421053,-0.17162105263157898,-0.3844610526315789,-0.8197852631578947,-1.4671599999999998,0.9389705263157895,-1.5191789473684212,-2.4665705263157895,0.840621052631579,0.47265684210526315,0.5647578947368422,1.146042105263158,-6.490368421052632,-6.993795789473684,-6.572753684210526,-3.3930757894736843,-3.735117894736842,-4.043713684210526,-4.672941052631579,-5.076913684210527,-6.190846315789474,-6.214103157894737,-8.001597894736841,-5.07684,-5.855871578947369,-6.326669473684211,-7.035124210526315,-4.754762105263159,-2.8246652631578946,-2.9895557894736844,-3.907978947368421,-4.461086315789474,-6.3782463157894735
0.1953125,0.8866863157894737,0.8889242105263158,-0.13506315789473686,-0.20424631578947366,0.9734336842105263,0.15574736842105263,0.004067368421052629,-0.729517894736842,-0.8059536842105263,-1.9487768421052631,-2.368861052631579,-1.6327515789473686,-1.7335031578947369,-2.3885431578947367,-2.750482105263158,-2.628821052631579,-2.96984,-1.3235642105263157,-2.3459052631578947,0.8937305263157894,0.8876400000000001,0.5375263157894736,0.3860168421052631,-0.10972842105263157,-0.3054063157894737,-0.8527242105263158,-0.9962673684210526,0.55004,0.4379431578947368,-0.1428294736842105,-0.4399578947368421,-0.8259852631578948,-1.4301494736842106,0.8628968421052631,-1.1604336842105263,-2.4428947368421055,0.593901052631579,0.45929684210526317,0.6192336842105264,1.0442842105263157,-6.105926315789474,-6.664852631578947,-6.236635789473684,-3.155616842105263,-3.4205873684210526,-3.787738947368421,-4.281277894736842,-4.787033684210526,-5.705637894736842,-5.781326315789474,-7.628454736842105,-4.691334736842105,-5.457021052631579,-5.089012631578948,-6.147955789473684,-4.411444210526316,-2.5974589473684206,-3.035837894736842,-3.7404021052631578,-4.359324210526316,-6.117136842105263
0.19921875,0.8619747368421052,0.8015368421052632,-0.12682947368421052,-0.19191999999999998,0.9251368421052631,-0.3623221052631579,-0.33311999999999997,-0.978258947368421,-0.7946378947368422,-1.8305726315789475,-2.317475789473684,-1.4682652631578947,-1.5833978947368421,-2.153155789473684,-2.5510505263157897,-2.479776842105263,-2.938972631578947,-1.2125494736842106,-2.2903852631578947,0.829981052631579,0.7612063157894736,0.5539768421052632,0.2708842105263158,-0.14160210526315792,-0.4431726315789474,-1.0110315789473685,-1.2162336842105264,0.5079115789473684,0.3608378947368421,-0.14178315789473686,-0.5067726315789474,-0.7571010526315789,-1.3818252631578947,0.7611410526315789,-1.0381178947368421,-2.277395789473684,0.21665263157894732,0.5261263157894737,0.7261284210526315,0.9569073684210526,-5.6823999999999995,-6.2896210526315794,-5.842943157894737,-2.8523452631578947,-3.103943157894737,-3.4732063157894735,-3.8772884210526315,-4.400503157894737,-5.263667368421053,-5.357827368421052,-7.1350105263157895,-4.278092631578947,-5.0664147368421055,-4.861827368421053,-6.1407768421052635,-4.014618947368421,-2.3456252631578947,-2.9505031578947367,-3.3981031578947367,-4.198972631578947,-5.714204210526315
0.203125,0.8311747368421053,0.73368,-0.008644210526315815,-0.15287157894736844,0.8593136842105262,-0.2698168421052632,-0.34854736842105266,-0.9011452631578948,-0.9282526315789474,-1.790503157894737,-2.2650484210526316,-1.3037747368421053,-1.4045473684210525,-1.9156757894736842,-2.338269473684211,-2.3533431578947366,-2.81668,-1.0819915789473684,-2.1916926315789476,0.7765178947368421,0.671781052631579,0.5036042105263159,0.15986526315789473,-0.20840210526315792,-0.5068757894736842,-1.0521536842105264,-1.3961473684210526,0.44005263157894736,0.2775557894736842,-0.15001263157894737,-0.5335136842105264,-0.6748884210526316,-1.2913726315789475,0.6829957894736842,-1.303341052631579,-2.1581642105263157,0.1159115789473684,0.5754631578947369,0.7569473684210527,0.87056,-5.251675789473683,-5.957623157894737,-5.462578947368421,-2.5480926315789474,-2.771905263157895,-3.0949136842105265,-3.4805073684210526,-4.033526315789474,-4.8215978947368425,-5.043282105263159,-6.526477894736843,-3.881288421052632,-4.6757642105263155,-4.797067368421053,-5.509614736842106,-3.690827368421053,-2.0772947368421053,-2.803503157894737,-3.0609389473684208,-3.976917894736842,-5.269096842105263
0.20703125,0.7397073684210526,0.6124042105263158,0.032513684210526334,-0.20833684210526315,0.7534357894736842,-0.25233684210526314,-0.3752547368421053,-0.7048126315789474,-0.8398673684210527,-1.8583263157894738,-2.1745894736842106,-1.142397894736842,-1.215418947368421,-1.7018505263157895,-2.1008063157894736,-2.2618357894736842,-2.8424084210526317,-0.9462884210526317,-2.1598357894736844,0.6315642105263157,0.5607578947368421,0.40285473684210527,0.03650736842105265,-0.3666968421052632,-0.5963284210526316,-1.077837894736842,-1.507162105263158,0.3526968421052632,0.23233263157894735,-0.19216631578947369,-0.577701052631579,-0.6902673684210526,-1.2441073684210526,0.5503852631578947,-1.6630863157894737,-2.1756252631578947,0.3050400000000001,0.47472000000000003,0.5462294736842105,0.7153157894736841,-4.906280000000001,-5.643044210526315,-5.163461052631578,-2.2849305263157897,-2.4491326315789474,-2.715591578947368,-3.0960421052631575,-3.6788800000000004,-4.384703157894736,-4.8356273684210525,-5.956989473684211,-3.4999473684210525,-4.264595789473685,-4.602774736842106,-5.349258947368422,-3.3598336842105265,-1.8501305263157894,-2.6801452631578946,-2.854298947368421,-3.7137621052631578,-4.865096842105263
0.2109375,0.5155873684210526,0.3975515789473684,-0.10731368421052628,-0.3800294736842105,0.5118842105263158,-0.07758105263157894,0.032850526315789476,-1.1077936842105263,-0.6599852631578947,-1.9200042105263158,-2.0419747368421053,-0.9645789473684211,-1.013941052631579,-1.509637894736842,-1.8088505263157895,-2.7562905263157895,-2.3808463157894737,-0.7910673684210526,-2.2770294736842103,0.4136168421052631,0.4106821052631579,0.1952063157894737,-0.08789052631578945,-0.5784968421052632,-0.7422905263157894,-1.1426021052631579,-1.6253705263157896,0.20670947368421055,0.14600210526315793,-0.26924631578947367,-0.6229747368421052,-0.7776463157894737,-1.28728,0.41674526315789473,-1.8656084210526316,-2.3442231578947372,0.3985831578947368,0.18483789473684217,0.12168631578947366,0.5190021052631579,-4.642103157894736,-5.333648421052632,-4.907437894736842,-1.991983157894737,-2.1479452631578946,-2.379469473684211,-2.6838252631578947,-3.281061052631579,-3.8769347368421054,-4.619730526315789,-5.460477894736842,-3.1216126315789476,-3.8585663157894734,-3.5347305263157898,-4.63688,-3.0576,-1.5910905263157895,-2.6719242105263157,-2.88412,-3.530787368421053,-4.567004210526316
0.21484375,0.17530736842105266,0.09635157894736848,-0.4136126315789474,-0.7418694736842105,0.17058736842105263,-0.28832,-0.24366105263157894,-0.9022084210526315,-0.8131431578947368,-1.8717136842105262,-1.9032189473684211,-0.8196589473684212,-0.8021936842105264,-1.3348842105263157,-1.5158884210526316,-2.2967936842105265,-2.586429473684211,-0.6297136842105263,-2.542235789473684,0.14225052631578947,0.16808631578947367,-0.08954736842105263,-0.3006526315789474,-0.7614863157894737,-0.9386273684210527,-1.2854778947368422,-1.7682526315789473,0.06383157894736843,0.04732,-0.38748631578947373,-0.6815073684210526,-0.9503326315789474,-1.427061052631579,0.24920631578947366,-1.7987915789473685,-2.6433642105263155,-0.04650526315789472,-0.27054526315789473,-0.3820126315789473,0.24450947368421053,-4.364553684210526,-4.96152,-4.691623157894737,-1.711343157894737,-1.812861052631579,-2.0577052631578945,-2.2880442105263157,-2.930494736842105,-3.3619094736842103,-4.3586252631578954,-5.059583157894737,-2.7505494736842104,-3.4319473684210524,-3.647806315789474,-4.199983157894737,-2.7296821052631577,-1.3351431578947368,-2.7109936842105262,-3.1596105263157894,-3.4074484210526315,-4.3932905263157895
0.21875,-0.17314105263157892,-0.2069221052631579,-0.7631284210526316,-1.2178063157894736,-0.16864210526315787,-0.2173915789473684,-0.23134526315789472,-0.7274778947368421,-0.7514778947368421,-1.8162021052631578,-1.832263157894737,-0.6736673684210526,-0.5821915789473684,-1.2074273684210526,-1.2578652631578948,-2.417037894736842,-2.4445747368421054,-0.47754526315789475,-2.9410842105263155,-0.13838105263157896,-0.09817894736842105,-0.31464210526315795,-0.5247557894736843,-0.9146294736842105,-1.1791852631578945,-1.4890168421052632,-2.0673915789473685,-0.08421052631578947,-0.05443999999999998,-0.49336210526315794,-0.7164947368421052,-1.0736884210526316,-1.6162105263157893,0.08266315789473686,-1.71248,-2.962021052631579,-0.8586,-0.735197894736842,-0.7675263157894738,-0.019665263157894755,-4.0520463157894735,-4.59248,-4.43052,-1.4738715789473682,-1.5075326315789472,-1.827418947368421,-1.901564210526316,-2.65812,-2.91268,-4.063627368421052,-4.776873684210526,-2.3887073684210525,-3.0526505263157895,-3.430915789473684,-3.9481284210526315,-2.4027810526315787,-1.0833052631578945,-2.8168526315789473,-3.5183726315789476,-3.380705263157895,-4.276079999999999
0.22265625,-0.45378526315789475,-0.4371726315789473,-1.0427263157894737,-1.6218042105263157,-0.4338505263157894,-0.21226947368421054,-0.2889052631578947,-0.6318421052631579,-0.8203389473684211,-1.745282105263158,-1.8702989473684208,-0.5996526315789473,-0.44546736842105267,-1.1539747368421054,-1.0893073684210528,-2.1744673684210527,-2.461016842105263,-0.3500884210526316,-3.369747368421053,-0.31517263157894737,-0.3263894736842105,-0.47706947368421054,-0.7334294736842105,-1.0482484210526315,-1.3559642105263157,-1.6853747368421053,-2.4261515789473687,-0.2281221052631579,-0.13874526315789473,-0.5787031578947369,-0.7915431578947368,-1.2237663157894736,-1.804338947368421,-0.05714947368421052,-1.837856842105263,-3.221065263157895,-1.4321873684210527,-1.0425305263157896,-0.9463747368421053,-0.24890526315789474,-3.7457200000000004,-4.248103157894737,-4.16322947368421,-1.2446336842105263,-1.2258715789473684,-1.6321410526315787,-1.588037894736842,-2.472044210526316,-2.5785726315789472,-3.8261726315789475,-4.601084210526316,-2.103953684210526,-2.7380842105263157,-3.724877894736842,-4.268854736842105,-2.103665263157895,-0.8848757894736843,-2.883713684210526,-3.822625263157895,-3.3796863157894736,-4.227793684210527
0.2265625,-0.5647936842105263,-0.5595031578947368,-1.21852,-1.7739536842105263,-0.5633663157894737,-0.05086947368421053,-0.09874947368421053,-0.83332,-0.9169536842105264,-1.7689073684210526,-1.9741284210526315,-0.5451263157894737,-0.35398947368421046,-1.1539536842105265,-1.0307073684210526,-2.279303157894737,-2.28216,-0.29969894736842106,-3.732602105263158,-0.38920210526315785,-0.4034652631578947,-0.5521136842105263,-0.8506126315789474,-1.1181747368421053,-1.4320505263157894,-1.8354231578947369,-2.711913684210526,-0.3062168421052632,-0.20042947368421052,-0.6588526315789474,-0.8675810526315789,-1.3481915789473684,-1.9461873684210527,-0.12498105263157895,-2.1853263157894736,-3.284789473684211,-1.3653831578947369,-1.1772042105263159,-0.9895368421052633,-0.35374526315789473,-3.53496,-3.990096842105263,-3.9196147368421053,-1.106901052631579,-1.0305431578947368,-1.4902757894736842,-1.367002105263158,-2.3661726315789475,-2.3740463157894736,-3.708972631578947,-4.427408421052631,-1.8983621052631579,-2.502663157894737,-3.465856842105263,-3.7672063157894735,-1.8949768421052633,-0.7738505263157895,-2.9381642105263155,-3.9562715789473684,-3.396107368421053,-4.187656842105263
0.23046875,-0.5504,-0.5594989473684211,-1.30896,-1.6670378947368423,-0.5582147368421052,-0.14130315789473685,-0.2776189473684211,-0.6925221052631578,-1.0012694736842105,-1.8675936842105263,-2.056364210526316,-0.5441199999999999,-0.30876,-1.1765705263157895,-0.9700589473684211,-2.137423157894737,-2.501115789473684,-0.25449052631578944,-3.920703157894737,-0.4066526315789474,-0.3746484210526316,-0.5675389473684211,-0.8762968421052632,-1.1901284210526317,-1.4536568421052631,-1.9289705263157895,-2.8219263157894736,-0.3237115789473684,-0.20146315789473684,-0.7061136842105263,-0.9539031578947368,-1.455075789473684,-1.999623157894737,-0.1373094736842105,-2.4998757894736845,-3.2436778947368423,-0.992237894736842,-1.1587052631578947,-1.0070063157894735,-0.3794357894736842,-3.420896842105263,-3.781418947368421,-3.766435789473684,-1.0359663157894736,-0.9318652631578946,-1.4244673684210525,-1.2200147368421053,-2.287025263157895,-2.209576842105263,-3.690473684210526,-4.187911578947369,-1.7883621052631578,-2.336136842105263,-3.4987536842105262,-3.771334736842105,-1.7561915789473685,-0.7080631578947368,-2.9833852631578948,-3.890482105263158,-3.3704463157894735,-4.1239642105263155
0.234375,-0.49183157894736845,-0.5060315789473684,-1.3583326315789472,-1.471724210526316,-0.5047747368421053,-0.2513073684210526,-0.2241515789473684,-0.8960336842105263,-0.8902547368421052,-1.978581052631579,-2.047098947368421,-0.541058947368421,-0.2840863157894737,-1.1601536842105262,-0.9227663157894738,-2.2680336842105264,-2.376715789473684,-0.2565515789473684,-3.8271852631578946,-0.3840484210526316,-0.32741473684210526,-0.5603431578947369,-0.8413789473684211,-1.2147957894736843,-1.4968084210526316,-1.959816842105263,-2.7191284210526314,-0.3226778947368421,-0.20864421052631582,-0.7328631578947369,-0.979661052631579,-1.559941052631579,-2.0294442105263157,-0.14658736842105263,-2.568751578947368,-3.1151852631578945,-0.8493473684210526,-1.1021642105263159,-1.005962105263158,-0.3321663157894737,-3.4003094736842105,-3.5788884210526315,-3.6533726315789474,-0.9958736842105264,-0.8527094736842105,-1.3833452631578949,-1.1234,-2.2479431578947366,-1.9957536842105261,-3.6698842105263156,-3.854797894736842,-1.7338884210526315,-2.157277894736842,-3.5151957894736845,-3.8206694736842106,-1.6780673684210525,-0.6792821052631579,-3.0214421052631577,-3.6406905263157894,-3.3549894736842103,-3.953294736842105
0.23828125,-0.4877136842105263,-0.5080905263157895,-1.396362105263158,-1.4090168421052631,-0.4965621052631579,-0.30063157894736847,-0.29917052631578944,-0.9536231578947368,-0.9570863157894737,-2.024863157894737,-1.9700294736842106,-0.54004,-0.2635073684210526,-1.088181052631579,-0.8364084210526316,-2.2289263157894736,-2.337663157894737,-0.2442063157894737,-3.572252631578947,-0.4282484210526316,-0.3572126315789474,-0.5613768421052632,-0.8547431578947368,-1.2137347368421052,-1.5533705263157895,-2.0368989473684214,-2.5474673684210525,-0.30212421052631583,-0.2271578947368421,-0.739042105263158,-0.9621852631578948,-1.609254736842105,-2.013004210526316,-0.16505263157894734,-2.4258610526315794,-3.051458947368421,-1.1001726315789473,-1.0672252631578947,-0.9854463157894736,-0.3373031578947368,-3.335555789473684,-3.3589389473684212,-3.537204210526316,-0.9784168421052631,-0.7786968421052632,-1.342223157894737,-1.0000357894736842,-2.133856842105263,-1.735637894736842,-3.608221052631579,-3.5032315789473687,-1.6639978947368421,-2.0133684210526317,-3.4196168421052633,-3.4557368421052628,-1.6246463157894737,-0.6422652631578947,-3.062562105263158,-3.4166294736842104,-3.3519094736842105,-3.6829410526315787
0.2421875,-0.5637747368421053,-0.6149810526315789,-1.4138294736842105,-1.5426673684210528,-0.5777536842105263,-0.20711999999999997,-0.2303157894736842,-0.8806294736842105,-0.9262021052631579,-1.9632042105263157,-1.8631431578947366,-0.4701052631578947,-0.23781894736842105,-0.9905221052631579,-0.7767747368421053,-2.1980968421052633,-1.9932821052631577,-0.21645684210526317,-3.266932631578947,-0.48068421052631577,-0.4826442105263158,-0.5881052631578948,-0.916418947368421,-1.189098947368421,-1.5996463157894736,-2.161317894736842,-2.496065263157895,-0.3370778947368421,-0.2919157894736842,-0.6968947368421052,-0.9570421052631578,-1.5290778947368422,-1.950296842105263,-0.2257178947368421,-2.2983747368421055,-2.969191578947368,-1.3653936842105263,-1.0929157894736843,-0.956658947368421,-0.4308421052631579,-3.219395789473684,-3.1738926315789473,-3.387124210526316,-0.9043915789473684,-0.6954294736842106,-1.3000968421052632,-0.8797473684210526,-2.077284210526316,-1.501303157894737,-3.467381052631579,-3.1732505263157895,-1.5786694736842106,-1.9013136842105263,-3.531642105263158,-3.505090526315789,-1.5146484210526314,-0.5836736842105263,-3.0512484210526316,-3.163713684210526,-3.3385621052631578,-3.325218947368421
0.24609375,-0.6778694736842106,-0.76712,-1.3439452631578948,-1.8212336842105263,-0.6815789473684211,-0.2615936842105263,-0.31870315789473685,-0.8035368421052632,-0.9179810526315789,-1.892258947368421,-1.8117221052631578,-0.42591368421052633,-0.20595368421052632,-0.9237157894736842,-0.7716526315789473,-2.287536842105263,-1.87816,-0.1845578947368421,-3.1158273684210527,-0.5299936842105263,-0.636818947368421,-0.5952652631578947,-1.0140694736842104,-1.1654547368421053,-1.6047536842105263,-2.3021347368421052,-2.628665263157895,-0.3884757894736842,-0.3536126315789474,-0.6845642105263158,-0.998138947368421,-1.3810589473684212,-1.861882105263158,-0.2668294736842105,-2.272675789473684,-2.982572631578947,-1.1885705263157895,-1.1319768421052632,-0.9422736842105264,-0.5459957894736842,-3.07344,-3.1081094736842108,-3.2514442105263157,-0.8529726315789473,-0.6224610526315789,-1.2507284210526315,-0.8078042105263158,-2.0207915789473683,-1.3984947368421052,-3.3142063157894737,-3.0478694736842105,-1.513913684210526,-1.9002736842105263,-3.314743157894737,-3.2419263157894735,-1.4437326315789474,-0.5641684210526317,-3.0080736842105265,-3.0362505263157895,-3.3159473684210528,-3.0548778947368422
0.25,-0.7097473684210526,-0.8719705263157894,-1.2380568421052631,-1.9435452631578947,-0.7555747368421053,-0.26777473684210523,-0.2631936842105263,-0.7572631578947369,-0.7781873684210526,-1.7946084210526314,-1.8446210526315792,-0.3919726315789474,-0.23577263157894734,-0.8856568421052632,-0.8179073684210526,-1.6728105263157895,-1.6756631578947367,-0.17841684210526318,-3.169282105263158,-0.5814231578947369,-0.7231621052631579,-0.5778084210526316,-1.072661052631579,-1.1521010526315791,-1.5574884210526316,-2.3319494736842103,-2.8075410526315787,-0.41212421052631576,-0.4152947368421052,-0.6455031578947368,-1.031058947368421,-1.2073178947368421,-1.8063894736842105,-0.30592631578947366,-2.288107368421053,-2.9856736842105263,-0.7208484210526315,-1.1268378947368423,-0.9402042105263158,-0.622042105263158,-2.9798884210526317,-3.1955010526315792,-3.190791578947368,-0.8355305263157895,-0.6584378947368421,-1.2137347368421052,-0.8478905263157894,-1.9827347368421053,-1.4684063157894736,-3.1703178947368422,-3.065322105263158,-1.4758673684210526,-1.9969094736842106,-3.148216842105263,-3.3950968421052634,-1.4334484210526317,-0.5713494736842105,-2.9535747368421053,-3.016730526315789,-3.2974400000000004,-2.9798252631578945
0.25390625,-0.6573221052631579,-0.8555452631578948,-1.1352652631578948,-1.9239957894736843,-0.7134694736842105,-0.19887789473684211,-0.32281473684210527,-0.6256673684210526,-0.8737578947368422,-1.7123684210526315,-1.919642105263158,-0.4012568421052632,-0.27276,-0.863061052631579,-0.9073515789473685,-1.612183157894737,-1.8206084210526317,-0.21438736842105263,-3.3399284210526314,-0.5567326315789475,-0.6810168421052631,-0.5243705263157895,-1.042863157894737,-1.0955726315789476,-1.509197894736842,-2.2003600000000003,-2.873317894736842,-0.4491115789473684,-0.40604,-0.6660484210526315,-1.0413221052631578,-1.1425789473684211,-1.7971094736842104,-0.28946947368421055,-2.1801747368421056,-3.0432294736842107,-0.4412589473684211,-1.082614736842105,-0.9525368421052631,-0.6241073684210526,-2.9840105263157892,-3.3692252631578947,-3.2586294736842105,-0.8406757894736843,-0.7458273684210526,-1.1705915789473682,-0.9589242105263158,-1.9652547368421052,-1.6267136842105263,-3.13948,-3.198983157894737,-1.5097936842105264,-2.1130947368421054,-3.478195789473684,-3.4002336842105265,-1.4951052631578947,-0.60012,-2.9155578947368417,-3.07428,-3.2254694736842104,-3.120642105263158
0.2578125,-0.5247115789473685,-0.7414421052631579,-1.050962105263158,-1.798618947368421,-0.6147831578947368,-0.2554126315789474,-0.17684842105263157,-0.7490568421052632,-0.6671894736842106,-1.6671557894736841,-1.92584,-0.400218947368421,-0.3005473684210526,-0.8599747368421052,-0.9474231578947369,-1.8269978947368422,-1.5851957894736841,-0.23701473684210528,-3.495155789473684,-0.47658526315789473,-0.5772084210526315,-0.5069157894736842,-0.9513747368421053,-1.0112336842105263,-1.4875978947368422,-1.9392736842105263,-2.782858947368421,-0.41417473684210526,-0.3762231578947368,-0.7112736842105264,-1.0156273684210526,-1.1754715789473684,-1.841341052631579,-0.27506315789473684,-2.0331768421052634,-3.0946042105263154,-0.6149747368421052,-1.0261010526315788,-0.9083263157894736,-0.5295284210526316,-3.0960294736842107,-3.537804210526316,-3.408703157894737,-0.8509178947368421,-0.8249515789473685,-1.189058947368421,-1.052461052631579,-1.9621642105263157,-1.7562042105263158,-3.1805915789473684,-3.278107368421052,-1.5539873684210526,-2.166549473684211,-3.3455663157894735,-3.4022968421052635,-1.5680778947368421,-0.598058947368421,-2.867242105263158,-3.114383157894737,-3.1545410526315787,-3.359155789473684
0.26171875,-0.39721263157894743,-0.6170568421052632,-1.015002105263158,-1.7235663157894736,-0.4811305263157895,-0.33357684210526317,-0.23545052631578947,-0.634938947368421,-0.6455852631578948,-1.596204210526316,-1.8559221052631578,-0.43517684210526314,-0.2840673684210526,-0.8301515789473685,-0.9155705263157895,-1.6789684210526317,-1.6818294736842105,-0.2524126315789474,-3.545526315789474,-0.4416442105263158,-0.4764568421052632,-0.5213136842105263,-0.8578147368421052,-0.9218168421052632,-1.4988505263157894,-1.7028463157894738,-2.611178947368421,-0.42244,-0.350498947368421,-0.7524147368421052,-0.9631957894736841,-1.2751978947368423,-1.9194547368421053,-0.24013263157894735,-1.898536842105263,-3.079214736842105,-0.9048652631578948,-0.9993663157894737,-0.8466652631578947,-0.4339389473684211,-3.240987368421053,-3.59330947368421,-3.5618863157894736,-0.8355115789473684,-0.8321663157894736,-1.1839094736842104,-1.0668463157894736,-1.9652547368421052,-1.7665136842105265,-3.2504884210526317,-3.2873663157894737,-1.5879284210526314,-2.1716652631578945,-3.5223663157894736,-3.4506084210526318,-1.5783663157894738,-0.5487410526315789,-2.8169031578947368,-3.1606273684210526,-3.104136842105263,-3.5266926315789475
0.265625,-0.4054778947368421,-0.5882884210526316,-1.0509473684210526,-1.7595305263157897,-0.45954736842105265,-0.26982526315789473,-0.1758336842105263,-0.49206736842105264,-0.4543621052631579,-1.5550884210526317,-1.6935178947368419,-0.3919894736842105,-0.22340000000000002,-0.7890252631578947,-0.8004294736842106,-1.7704842105263159,-1.6489368421052633,-0.19793263157894736,-3.545522105263158,-0.4714315789473684,-0.5031894736842105,-0.5695852631578947,-0.8136,-0.876578947368421,-1.50812,-1.5897494736842104,-2.5505536842105263,-0.4686694736842105,-0.34641052631578945,-0.7965831578947369,-0.9354463157894737,-1.3543178947368422,-1.932835789473684,-0.2966357894736842,-1.8913242105263157,-3.0154947368421054,-0.8873915789473683,-1.0538526315789474,-0.8301810526315789,-0.43906105263157896,-3.362277894736842,-3.6005052631578947,-3.666717894736842,-0.7923536842105263,-0.7817726315789474,-1.1664421052631577,-0.9917978947368421,-1.941621052631579,-1.6945663157894737,-3.331690526315789,-3.238021052631579,-1.5889347368421054,-2.171658947368421,-3.2242989473684207,-3.5092105263157896,-1.5660294736842106,-0.5066126315789473,-2.7603326315789474,-3.1575389473684212,-3.06204,-3.4968694736842103
0.26953125,-0.4815221052631579,-0.6499536842105264,-1.102376842105263,-1.8068505263157895,-0.5459052631578948,-1.0736736842105263,-0.9632442105263158,-0.17955789473684208,-0.19634947368421055,-1.5252652631578947,-1.5177136842105263,-0.34778105263157894,-0.15147578947368423,-0.7417747368421053,-0.6935094736842105,-1.2811726315789473,-1.8946105263157893,-0.14345263157894736,-3.542437894736842,-0.5515978947368422,-0.60084,-0.6836989473684211,-0.8660378947368421,-0.9248905263157894,-1.4423347368421053,-1.6452736842105262,-2.658503157894737,-0.5313578947368421,-0.3977810526315789,-0.7935263157894737,-0.9405978947368421,-1.3399494736842106,-1.8690631578947368,-0.37065894736842103,-1.9375663157894736,-2.9424821052631582,-0.5933642105263159,-1.125802105263158,-0.907298947368421,-0.5326189473684211,-3.4517242105263155,-3.655004210526316,-3.764397894736842,-0.7132105263157894,-0.7015936842105264,-1.1222694736842105,-0.9280821052631579,-1.9488252631578948,-1.642103157894737,-3.3656273684210527,-3.2164336842105263,-1.6054042105263158,-2.210743157894737,-4.573987368421053,-4.920578947368421,-1.5393115789473684,-0.43875157894736844,-2.700717894736842,-3.155513684210526,-3.019896842105263,-3.32728
0.2734375,-0.62444,-0.7743347368421052,-1.1640357894736844,-1.7687873684210527,-0.6435536842105263,-0.28729263157894736,0.02153894736842106,-0.6287642105263158,-0.18508210526315794,-1.515018947368421,-1.4540021052631578,-0.2984673684210526,-0.11653263157894737,-0.7458631578947369,-0.6575578947368421,-1.5658968421052633,-1.307661052631579,-0.0746042105263158,-3.6328884210526318,-0.6626378947368421,-0.6748778947368421,-0.7309621052631579,-0.9071284210526315,-1.043141052631579,-1.409423157894737,-1.7830147368421052,-2.8332315789473688,-0.5961452631578947,-0.42657894736842106,-0.7791347368421052,-0.9066652631578948,-1.2700652631578948,-1.7663073684210526,-0.44982526315789473,-1.9930736842105263,-2.957907368421053,-0.389858947368421,-1.1895284210526316,-1.0471052631578948,-0.6539157894736842,-3.5534947368421053,-3.8605873684210525,-3.904218947368421,-0.6977705263157895,-0.6943936842105263,-1.1130084210526314,-0.9404210526315789,-1.9714273684210526,-1.7274315789473684,-3.3656463157894736,-3.335677894736842,-1.6465431578947367,-2.371117894736842,-3.2664168421052633,-3.676755789473684,-1.5824799999999999,-0.439778947368421,-2.6883684210526315,-3.262397894736842,-2.982867368421053,-3.2337284210526316
0.27734375,-0.6871263157894737,-0.8298442105263157,-1.1753515789473685,-1.606378947368421,-0.7175515789473684,-0.24513684210526315,-0.13264842105263158,-0.4632821052631579,-0.4091642105263158,-1.4882884210526317,-1.422117894736842,-0.3087494736842105,-0.11652631578947369,-0.7386736842105264,-0.6976147368421053,-1.6645957894736843,-1.5502631578947368,-0.10544210526315789,-3.816898947368421,-0.7057915789473683,-0.6964484210526316,-0.7731094736842105,-0.9472505263157895,-1.1253831578947369,-1.4382063157894738,-1.887877894736842,-2.8949073684210522,-0.6074484210526316,-0.4327515789473684,-0.7554673684210526,-0.8336736842105263,-1.195,-1.6851136842105263,-0.48066315789473685,-2.0331768421052634,-3.0226715789473686,-0.5306778947368421,-1.2018694736842106,-1.150922105263158,-0.71456,-3.7652315789473683,-4.191568421052631,-4.129324210526316,-0.7348126315789474,-0.78384,-1.1407705263157895,-1.047317894736842,-2.001277894736842,-1.909397894736842,-3.408802105263158,-3.5885684210526314,-1.7770694736842103,-2.6013663157894733,-3.742374736842105,-3.9851347368421055,-1.7572336842105263,-0.4952884210526316,-2.7284589473684213,-3.4248210526315788,-2.9551368421052633,-3.3416547368421052
0.28125,-0.6902042105263159,-0.8216294736842106,-1.15684,-1.4398442105263158,-0.7052147368421052,-0.3355915789473684,-0.04220631578947369,-0.6328652631578947,-0.14804210526315792,-1.4892926315789474,-1.4148968421052632,-0.34164421052631583,-0.16690105263157895,-0.7787684210526317,-0.7459621052631579,-1.8413936842105263,-1.2727052631578946,-0.1691621052631579,-3.949482105263158,-0.6883368421052631,-0.6481221052631579,-0.77828,-0.9266905263157895,-1.1212526315789475,-1.537938947368421,-1.8416126315789474,-2.7232294736842104,-0.579701052631579,-0.42246736842105265,-0.7246484210526316,-0.7730147368421052,-1.1868042105263157,-1.6747852631578948,-0.47962947368421055,-2.1277347368421053,-3.065825263157895,-0.7671136842105263,-1.196741052631579,-1.1211452631578946,-0.6970842105263159,-3.971844210526316,-4.547233684210527,-4.378088421052632,-0.8787094736842105,-0.917477894736842,-1.2014126315789475,-1.2508463157894738,-2.066018947368421,-2.1437515789473687,-3.5003052631578946,-3.869216842105263,-1.9487347368421053,-2.8398715789473687,-3.4864147368421055,-4.077648421052632,-1.960778947368421,-0.6052842105263158,-2.7994,-3.6180926315789477,-2.9931684210526317,-3.591475789473684
0.28515625,-0.6192757894736842,-0.7260126315789474,-1.1640336842105263,-1.404884210526316,-0.6363705263157895,-0.0529136842105263,0.2487389473684211,-0.40466315789473684,0.2240905263157895,-1.4934252631578946,-1.4416463157894737,-0.3981536842105264,-0.18952,-0.7859663157894737,-0.7582926315789473,-1.6234652631578947,-1.499898947368421,-0.2308231578947368,-4.024543157894737,-0.6595642105263158,-0.5885136842105263,-0.7484884210526316,-0.8855621052631579,-1.07088,-1.602717894736842,-1.7871284210526317,-2.4055810526315793,-0.566303157894737,-0.38030315789473684,-0.7174568421052631,-0.7545347368421053,-1.2165852631578948,-1.7241663157894738,-0.466258947368421,-2.2264147368421052,-3.0596905263157894,-0.7208484210526316,-1.1782252631578949,-0.9689663157894736,-0.6518631578947368,-4.139421052631579,-4.784722105263158,-4.573387368421052,-0.978421052631579,-1.0336273684210526,-1.3268126315789472,-1.3495705263157893,-2.1759915789473685,-2.2897368421052633,-3.6606400000000003,-4.072726315789474,-2.1224526315789474,-3.0176821052631575,-3.8184378947368423,-4.185585263157895,-2.136530526315789,-0.6967831578947368,-2.8816231578947367,-3.6386315789473684,-3.1185873684210526,-3.862869473684211
0.2890625,-0.58536,-0.657138947368421,-1.2514315789473682,-1.4665599999999999,-0.6301768421052631,-0.30064,-0.007216842105263158,-0.6791326315789474,-0.16961894736842106,-1.5283705263157894,-1.4560315789473683,-0.41256210526315784,-0.1854042105263158,-0.8229852631578948,-0.7428547368421052,-1.824955789473684,-1.3868189473684212,-0.26681263157894736,-3.9803473684210524,-0.6430905263157896,-0.6162568421052632,-0.7679915789473684,-0.8763052631578947,-1.0338863157894738,-1.6222336842105265,-1.7573284210526317,-2.1434757894736842,-0.5673326315789474,-0.3762084210526315,-0.7400484210526315,-0.7843431578947369,-1.267976842105263,-1.7919915789473684,-0.47345263157894735,-2.226423157894737,-2.935298947368421,-0.40425263157894736,-1.1895642105263158,-0.8476863157894737,-0.6528673684210526,-4.191831578947369,-4.834048421052632,-4.646364210526316,-1.0318736842105263,-1.0531663157894737,-1.3926063157894737,-1.367018947368421,-2.3178694736842105,-2.2989894736842107,-3.7768357894736844,-4.141612631578948,-2.181056842105263,-3.055724210526316,-3.7341494736842105,-4.423067368421052,-2.200292631578947,-0.721458947368421,-2.93816,-3.416578947368421,-3.29844,-3.9625705263157895
0.29296875,-0.6172568421052632,-0.675621052631579,-1.3706399999999999,-1.5303305263157896,-0.6682168421052632,-0.3869852631578947,-0.05348421052631579,-0.718202105263158,-0.2693473684210526,-1.6116210526315788,-1.4509263157894736,-0.4125515789473684,-0.14118947368421053,-0.8291305263157894,-0.6832589473684211,-2.022338947368421,-1.6006168421052631,-0.23804631578947366,-3.881675789473684,-0.7253536842105264,-0.7026105263157895,-0.8173157894736842,-0.9472484210526315,-1.113023157894737,-1.5790715789473684,-1.8796589473684209,-2.1434526315789473,-0.6074294736842105,-0.4111642105263158,-0.7821894736842105,-0.8439431578947368,-1.2946947368421053,-1.788924210526316,-0.5320421052631579,-2.190458947368421,-2.8242757894736843,-0.34359578947368413,-1.2337431578947369,-0.8301810526315789,-0.70324,-4.137355789473684,-4.762096842105263,-4.606313684210526,-1.0411263157894737,-1.0192463157894738,-1.414218947368421,-1.2919747368421053,-2.398042105263158,-2.2280778947368423,-3.814837894736842,-4.05425052631579,-2.169768421052632,-2.9765642105263157,-4.310846315789473,-4.3953221052631575,-2.1622526315789474,-0.7080821052631578,-2.9947157894736844,-3.071216842105263,-3.481437894736842,-3.8505115789473683
0.296875,-0.7190063157894737,-0.7897642105263157,-1.4847621052631579,-1.5570484210526316,-0.7967242105263158,-0.39522526315789475,-0.04936842105263157,-0.725421052631579,-0.2580631578947368,-1.662,-1.4406168421052632,-0.41564421052631584,-0.09493684210526314,-0.8455705263157896,-0.6421263157894737,-2.045981052631579,-1.8339663157894737,-0.2041052631578947,-3.8909284210526316,-0.8137305263157895,-0.7930568421052632,-0.8790126315789474,-1.0531221052631579,-1.2661915789473686,-1.5636294736842107,-2.076997894736842,-2.4004694736842103,-0.6824736842105263,-0.4574252631578948,-0.8325831578947368,-0.8747999999999999,-1.2998631578947368,-1.7179894736842105,-0.5957936842105264,-2.1441810526315788,-2.7553957894736842,-0.8493263157894738,-1.3046905263157893,-0.9103852631578947,-0.8245747368421052,-4.11065052631579,-4.69834947368421,-4.564155789473684,-1.0328715789473684,-0.9452463157894737,-1.4285915789473684,-1.23236,-2.4617789473684213,-2.156096842105263,-3.825143157894737,-3.959669473684211,-2.1615242105263155,-2.892258947368421,-3.976757894736842,-4.532006315789474,-2.149903157894737,-0.6782589473684211,-3.0347873684210525,-2.859421052631579,-3.5678042105263157,-3.689124210526316
0.30078125,-0.8330757894736842,-0.9686378947368421,-1.50016,-1.5560126315789473,-0.9046694736842106,-0.040578947368421055,0.3864884210526316,-1.1437599999999999,-0.19432421052631582,-1.7020905263157895,-1.4242042105263157,-0.4413642105263158,-0.08257894736842104,-0.8887284210526316,-0.6298021052631579,-2.3296821052631578,-1.370362105263158,-0.19177052631578947,-4.021463157894737,-0.8785031578947368,-0.8598947368421053,-0.9540336842105263,-1.136397894736842,-1.4234589473684212,-1.5698252631578948,-2.2589431578947368,-2.780806315789474,-0.7657368421052632,-0.5160210526315789,-0.8850042105263158,-0.8675873684210526,-1.3615263157894737,-1.6521810526315788,-0.6615957894736841,-2.182244210526316,-2.8139894736842104,-1.638797894736842,-1.3951157894736843,-1.02656,-0.9294126315789474,-4.188755789473684,-4.753835789473684,-4.643292631578947,-1.0431557894736843,-0.9513894736842106,-1.4789599999999998,-1.2169557894736842,-2.5162631578947368,-2.161233684210526,-3.92485052631579,-3.950423157894737,-2.2149663157894737,-2.9334231578947367,-3.767046315789474,-4.176307368421053,-2.1951431578947367,-0.7265705263157894,-3.075896842105263,-2.8871873684210527,-3.610966315789474,-3.641837894736842
0.3046875,-0.9235473684210527,-1.096077894736842,-1.4919431578947369,-1.5786526315789473,-0.9724842105263158,-0.44148421052631576,-0.06377052631578947,-1.0769536842105263,-0.3608336842105263,-1.7411663157894737,-1.4231347368421052,-0.44649263157894736,-0.11962315789473683,-0.9597052631578947,-0.65652,-2.540442105263158,-1.7106168421052632,-0.22363578947368423,-4.20853052631579,-0.9422273684210526,-0.8835178947368421,-1.0044378947368422,-1.1713431578947369,-1.482077894736842,-1.5667284210526315,-2.3514905263157897,-3.0953578947368423,-0.7945347368421053,-0.539658947368421,-0.9631031578947368,-0.861421052631579,-1.4848757894736844,-1.6152042105263158,-0.671861052631579,-2.293275789473684,-2.987705263157895,-2.038709473684211,-1.4825326315789473,-1.161216842105263,-0.973578947368421,-4.421092631578947,-4.93376,-4.861208421052631,-1.1439221052631579,-1.0500863157894738,-1.569421052631579,-1.2971052631578948,-2.5707263157894737,-2.2126547368421052,-4.0708126315789475,-4.089166315789474,-2.3516926315789477,-3.0937557894736845,-4.412593684210527,-5.0696547368421045,-2.3359705263157897,-0.8242568421052632,-3.1252905263157893,-3.139065263157895,-3.6037557894736842,-3.7436063157894734
0.30859375,-0.9513052631578948,-1.1649768421052633,-1.4713915789473686,-1.6937473684210527,-0.99716,-0.44559368421052625,-0.17684421052631577,-0.9813705263157895,-0.5396926315789473,-1.8357473684210526,-1.4653073684210525,-0.5133031578947368,-0.18434947368421054,-1.029581052631579,-0.7048273684210526,-2.153903157894737,-2.1238463157894736,-0.2729957894736842,-4.3874231578947365,-0.969978947368421,-0.8732505263157895,-1.0558063157894737,-1.141538947368421,-1.486181052631579,-1.5523284210526316,-2.399776842105263,-3.212572631578947,-0.8120042105263158,-0.5149915789473685,-1.0340421052631579,-0.8501263157894737,-1.660658947368421,-1.6665663157894737,-0.6954884210526316,-2.398088421052632,-3.0915431578947365,-1.7560231578947367,-1.576035789473684,-1.2650231578947368,-0.9694778947368421,-4.707875789473684,-5.18664,-5.123381052631579,-1.2549157894736842,-1.1754863157894737,-1.6660547368421053,-1.413258947368421,-2.6550294736842104,-2.352437894736842,-4.232208421052632,-4.287597894736842,-2.5696252631578944,-3.3127094736842104,-4.2614757894736846,-4.796195789473685,-2.5096926315789476,-0.9403978947368421,-3.170524210526316,-3.4042652631578947,-3.613048421052632,-3.9173242105263157
0.3125,-0.9780210526315789,-1.1588168421052631,-1.5711221052631579,-1.8345684210526314,-0.970418947368421,-0.42295578947368423,-0.22928,-1.0234863157894738,-0.5911115789473684,-1.931341052631579,-1.522837894736842,-0.5204989473684211,-0.23782105263157896,-1.060423157894737,-0.7603368421052632,-2.331736842105263,-2.0714357894736843,-0.3069031578947368,-4.433698947368421,-0.97204,-0.8496084210526317,-1.107216842105263,-1.091162105263158,-1.4943957894736841,-1.5317726315789473,-2.44092,-3.2012505263157895,-0.797621052631579,-0.49649263157894735,-1.1060315789473685,-0.8809663157894737,-1.8138357894736843,-1.725181052631579,-0.6790526315789474,-2.4536147368421055,-3.104901052631579,-1.2626042105263158,-1.6274673684210528,-1.3380273684210526,-0.9540799999999999,-4.893955789473684,-5.353147368421053,-5.309412631578947,-1.3083768421052633,-1.2967936842105263,-1.7390294736842105,-1.517103157894737,-2.700275789473684,-2.459353684210526,-4.3267768421052635,-4.429423157894737,-2.705330526315789,-3.494667368421053,-5.454951578947368,-5.186842105263158,-2.6823852631578946,-1.030858947368421,-3.1951705263157892,-3.4824042105263158,-3.6551873684210525,-4.032446315789474
0.31640625,-0.9924505263157894,-1.1186905263157896,-1.7458505263157895,-1.906536842105263,-0.9416694736842105,-0.14542526315789475,0.019492631578947366,-0.8600484210526317,-0.5170905263157894,-2.014595789473684,-1.6092084210526316,-0.48863578947368425,-0.2604442105263158,-1.0203305263157894,-0.81996,-2.373901052631579,-2.0220926315789476,-0.31923999999999997,-4.384353684210526,-0.9987768421052631,-0.8619242105263157,-1.1380631578947369,-1.0541410526315789,-1.5540042105263159,-1.5101810526315789,-2.498505263157895,-3.0860884210526316,-0.8150863157894737,-0.5006147368421052,-1.1296694736842103,-0.9272147368421053,-1.8682926315789472,-1.8063705263157894,-0.6821242105263158,-2.462888421052632,-2.990814736842105,-1.1516063157894736,-1.6398021052631577,-1.3390357894736842,-0.9561284210526316,-4.924795789473683,-5.395315789473685,-5.345397894736842,-1.2970736842105264,-1.3276126315789474,-1.707183157894737,-1.5571957894736843,-2.7218526315789475,-2.4912336842105263,-4.319564210526316,-4.474654736842105,-2.7032757894736843,-3.51728,-4.817627368421053,-5.134397894736842,-2.726621052631579,-1.0112926315789474,-3.2373284210526316,-3.3806315789473684,-3.7251094736842103,-3.999562105263158
0.3203125,-1.0140231578947367,-1.0796378947368421,-1.8918315789473685,-1.8962442105263158,-0.9303452631578947,-0.37978947368421057,-0.24572421052631577,-0.734658947368421,-0.6908126315789473,-1.9889094736842106,-1.6616336842105262,-0.47937894736842107,-0.2676336842105263,-1.0069536842105262,-0.8734147368421052,-2.0356884210526314,-2.2009726315789475,-0.30689894736842105,-4.312378947368421,-0.9751452631578947,-0.8146736842105262,-1.1123578947368422,-1.0870399999999998,-1.6044,-1.5369115789473684,-2.5067305263157897,-2.9267663157894734,-0.8294694736842105,-0.5273157894736842,-1.1265705263157895,-0.973461052631579,-1.8477621052631579,-1.8649663157894738,-0.6656884210526316,-2.444357894736842,-2.8705178947368424,-1.4763957894736843,-1.5184673684210526,-1.2948484210526316,-0.9499894736842105,-4.853875789473684,-5.369608421052631,-5.2857747368421055,-1.2230463157894738,-1.3070863157894737,-1.6423957894736843,-1.5345747368421052,-2.714656842105263,-2.5600926315789474,-4.270214736842106,-4.391414736842106,-2.6302715789473683,-3.4679157894736843,-4.881376842105263,-5.20328,-2.665955789473684,-0.9691726315789473,-3.285623157894737,-3.2572610526315793,-3.8052547368421052,-3.8957200000000003
0.32421875,-0.9512989473684211,-1.0025136842105264,-1.9000568421052633,-1.8037663157894737,-0.8964294736842104,-0.45484842105263157,-0.16245473684210526,-0.7911726315789473,-0.5849284210526315,-1.8973957894736844,-1.6996505263157893,-0.45574315789473685,-0.30157684210526314,-0.966861052631579,-0.9515326315789474,-2.2361410526315786,-1.916202105263158,-0.3079452631578947,-4.320608421052632,-0.9052252631578948,-0.7930673684210526,-1.03424,-1.144637894736842,-1.5581178947368421,-1.5851894736842107,-2.445025263157895,-2.7571494736842106,-0.7904231578947369,-0.5705031578947368,-1.050498947368421,-1.0433705263157895,-1.7367515789473684,-1.888642105263158,-0.6451705263157895,-2.464898947368421,-2.8499873684210524,-1.7261957894736841,-1.377658947368421,-1.1951157894736841,-0.9047242105263157,-4.828143157894737,-5.329505263157895,-5.252852631578947,-1.1778547368421053,-1.2731599999999998,-1.5632421052631578,-1.552058947368421,-2.698176842105263,-2.6197136842105264,-4.273317894736842,-4.350298947368421,-2.554214736842105,-3.395983157894737,-4.215237894736842,-5.096355789473684,-2.6022378947368416,-0.9177873684210527,-3.368882105263158,-3.2192526315789474,-3.8484442105263157,-3.8515410526315788
0.328125,-0.8824547368421053,-0.9521515789473683,-1.7695031578947369,-1.6803915789473685,-0.8131642105263157,-0.4424968421052632,-0.2878863157894737,-0.9227705263157894,-0.6939073684210526,-1.8223473684210527,-1.7130336842105265,-0.4804021052631579,-0.3581136842105263,-0.9894736842105263,-0.997821052631579,-2.247425263157895,-2.2503073684210526,-0.3542126315789474,-4.474762105263158,-0.8085978947368421,-0.7601831578947368,-0.9201221052631579,-1.1661936842105263,-1.393663157894737,-1.6098884210526316,-2.314454736842105,-2.644065263157895,-0.7338778947368421,-0.5920842105263158,-0.9693115789473684,-1.1214905263157895,-1.6390736842105265,-1.8855305263157893,-0.5834421052631579,-2.444355789473684,-3.0051978947368423,-1.5165157894736843,-1.2655936842105264,-1.1591557894736841,-0.8430631578947368,-4.892905263157895,-5.368568421052632,-5.290901052631579,-1.188098947368421,-1.308098947368421,-1.5817452631578948,-1.6281305263157895,-2.6951052631578944,-2.7070989473684213,-4.318528421052632,-4.460246315789474,-2.542896842105263,-3.4381010526315787,-4.06621052631579,-5.061412631578947,-2.609418947368421,-0.9527052631578948,-3.4336589473684214,-3.3847305263157894,-3.859734736842105,-3.9563873684210527
0.33203125,-0.7889094736842106,-0.8709347368421053,-1.6225136842105263,-1.5693642105263157,-0.7206463157894737,-0.3366378947368421,-0.1665894736842105,-0.9864947368421052,-0.5736168421052632,-1.7894673684210525,-1.749018947368421,-0.5317915789473684,-0.398178947368421,-1.0039242105263158,-1.0440631578947368,-2.230991578947368,-2.06936,-0.4240863157894737,-4.717410526315789,-0.7129873684210526,-0.7529852631578947,-0.8070610526315789,-1.1240442105263158,-1.1942105263157894,-1.5893578947368423,-2.194195789473684,-2.6009284210526316,-0.6413726315789473,-0.5694715789473684,-0.8922126315789474,-1.1369073684210524,-1.5589115789473686,-1.8587936842105264,-0.5227957894736842,-2.375496842105263,-3.2519284210526314,-1.0487557894736843,-1.266661052631579,-1.1745599999999998,-0.7495094736842105,-5.034768421052632,-5.483696842105263,-5.425572631578947,-1.240538947368421,-1.3697726315789476,-1.6177221052631579,-1.7175663157894738,-2.7074757894736843,-2.817082105263158,-4.39770947368421,-4.6905326315789475,-2.604555789473684,-3.5409094736842106,-4.095978947368421,-5.058330526315789,-2.671098947368421,-1.034978947368421,-3.4624315789473683,-3.5975284210526315,-3.813477894736842,-4.129086315789474
0.3359375,-0.716941052631579,-0.8226442105263158,-1.5310231578947369,-1.4932926315789472,-0.6959705263157895,-0.3592484210526316,-0.37318947368421057,-0.6472652631578947,-0.86144,-1.8449831578947367,-1.8004147368421053,-0.55852,-0.4300568421052632,-1.0090547368421052,-1.056383157894737,-1.8886905263157896,-2.3572084210526314,-0.4569915789473684,-4.879823157894737,-0.6554231578947369,-0.7334631578947368,-0.7721263157894737,-1.077778947368421,-1.1202442105263157,-1.546176842105263,-2.187004210526316,-2.6605389473684213,-0.5961284210526315,-0.5232294736842105,-0.873698947368421,-1.0968252631578947,-1.5218926315789474,-1.8454589473684209,-0.46318315789473685,-2.3364442105263157,-3.428703157894737,-0.8339642105263158,-1.397218947368421,-1.2742905263157895,-0.7094336842105263,-5.104682105263159,-5.608086315789474,-5.547915789473684,-1.2713894736842104,-1.444818947368421,-1.6475473684210526,-1.7967263157894737,-2.7064252631578944,-2.8962526315789474,-4.380202105263158,-4.930042105263158,-2.654957894736842,-3.685856842105263,-4.5493073684210525,-5.1817010526315785,-2.70708,-1.0688926315789473,-3.475795789473684,-3.7486378947368424,-3.7363705263157896,-4.3038568421052625
0.33984375,-0.7467621052631579,-0.8236463157894737,-1.6060694736842107,-1.5025768421052632,-0.7093242105263158,-0.3582336842105263,-0.2560126315789474,-0.6812126315789474,-0.7422042105263158,-1.8840168421052632,-1.837425263157895,-0.5420905263157895,-0.3950926315789474,-0.9432252631578947,-1.0337936842105264,-2.0839915789473684,-2.270844210526316,-0.4528842105263158,-4.938393684210526,-0.6975705263157895,-0.7488968421052632,-0.8265936842105264,-1.0469663157894735,-1.2014084210526315,-1.5204736842105264,-2.301107368421053,-2.8167642105263155,-0.6002484210526315,-0.4759178947368421,-0.8778252631578947,-1.0063578947368421,-1.5321642105263158,-1.8495473684210526,-0.46112421052631575,-2.3796147368421052,-3.4523852631578946,-1.136145263157895,-1.5945705263157897,-1.3688757894736843,-0.7063368421052632,-5.005972631578947,-5.63584,-5.513964210526315,-1.2210021052631579,-1.4499747368421054,-1.5745536842105263,-1.802858947368421,-2.642686315789474,-2.90342947368421,-4.285654736842105,-5.00302947368421,-2.6025515789473683,-3.6786568421052634,-4.366349473684211,-5.4695136842105265,-2.700877894736842,-1.0236442105263157,-3.4644736842105264,-3.7403957894736846,-3.698338947368421,-4.343926315789473
0.34375,-0.8341305263157894,-0.8719726315789474,-1.7612926315789474,-1.668061052631579,-0.7854421052631578,-0.375698947368421,-0.19845052631578947,-0.7654821052631579,-0.6322273684210526,-1.879941052631579,-1.834322105263158,-0.4752694736842105,-0.3385515789473684,-0.8425052631578948,-0.9721368421052631,-2.0480168421052634,-2.1865536842105264,-0.3984084210526316,-4.899353684210526,-0.7654189473684211,-0.759157894736842,-0.9304126315789473,-1.062376842105263,-1.3874736842105262,-1.5934378947368422,-2.526237894736842,-3.0018147368421055,-0.6598547368421053,-0.45022526315789474,-0.9127557894736843,-0.9508631578947369,-1.5404042105263158,-1.866,-0.48168631578947374,-2.5132315789473685,-3.361882105263158,-1.5452905263157894,-1.7302547368421053,-1.4377136842105263,-0.7700652631578947,-4.702713684210527,-5.552591578947368,-5.342292631578947,-1.1181852631578948,-1.3543494736842105,-1.4717578947368422,-1.7504463157894736,-2.5460757894736843,-2.8396926315789472,-4.109888421052632,-4.869393684210526,-2.4503578947368423,-3.586176842105263,-4.318054736842106,-5.38213052631579,-2.5641936842105264,-0.8951621052631579,-3.4316063157894736,-3.596498947368421,-3.6603094736842103,-4.252456842105263
0.34765625,-0.9369347368421053,-0.9449557894736842,-1.9267936842105262,-1.920943157894737,-0.834738947368421,-0.3715726315789474,-0.16248631578947367,-1.0060315789473684,-0.7340042105263158,-1.8172231578947369,-1.7778063157894737,-0.4269663157894737,-0.2737957894736842,-0.806538947368421,-0.9227536842105263,-2.0737284210526314,-2.0169536842105265,-0.3161663157894737,-4.844846315789474,-0.800376842105263,-0.7416505263157894,-0.9910715789473684,-1.0973368421052632,-1.5129094736842106,-1.6736273684210525,-2.6588273684210524,-3.0902063157894735,-0.6938084210526316,-0.4635936842105263,-0.9333136842105263,-0.9704063157894737,-1.5527536842105263,-1.8958273684210527,-0.49400421052631577,-2.6057284210526315,-3.277585263157895,-1.5586421052631578,-1.7878084210526317,-1.4521136842105264,-0.8245494736842105,-4.439568421052631,-5.423080000000001,-5.149067368421052,-0.9948294736842105,-1.2402463157894736,-1.381301052631579,-1.6579094736842106,-2.4997936842105264,-2.760555789473684,-3.9834357894736843,-4.659696842105262,-2.2643115789473685,-3.450444210526316,-3.6601578947368423,-4.982269473684211,-2.4048336842105265,-0.7646126315789473,-3.401770526315789,-3.4607957894736843,-3.6850021052631576,-4.17122947368421
0.3515625,-0.9965473684210526,-0.9902021052631579,-2.0254694736842103,-2.128597894736842,-0.8532547368421053,-0.40037263157894737,-0.16761894736842106,-0.8703494736842106,-0.5489663157894737,-1.7329452631578948,-1.73156,-0.4022757894736842,-0.21624631578947368,-0.8270947368421053,-0.8909010526315789,-1.8722484210526316,-1.813416842105263,-0.2770947368421053,-4.921962105263157,-0.7674652631578948,-0.7303642105263158,-0.9735957894736842,-1.1219768421052632,-1.4913073684210525,-1.7301684210526316,-2.6259494736842104,-3.0460484210526317,-0.6855663157894737,-0.4563915789473684,-0.9055642105263159,-1.0300273684210528,-1.5928294736842104,-1.9235578947368421,-0.4744863157894737,-2.6078021052631577,-3.2426505263157894,-1.2882905263157896,-1.7600989473684212,-1.474743157894737,-0.8039915789473685,-4.379957894736842,-5.344951578947368,-5.017469473684211,-0.9424357894736842,-1.153903157894737,-1.3525305263157894,-1.5993305263157895,-2.544014736842105,-2.7358673684210526,-3.932031578947368,-4.49934947368421,-2.1913410526315786,-3.414473684210526,-4.378661052631579,-5.375962105263158,-2.3144084210526317,-0.7101094736842106,-3.367846315789474,-3.4073705263157894,-3.741501052631579,-4.177387368421052
0.35546875,-0.9821452631578947,-0.9799094736842106,-2.0388336842105264,-2.1265452631578947,-0.8162357894736841,-0.47539157894736844,-0.15732000000000002,-0.9084105263157894,-0.39168631578947366,-1.763776842105263,-1.735658947368421,-0.4300357894736842,-0.20906105263157895,-0.8939031578947368,-0.8939873684210526,-2.1857515789473685,-1.8134147368421052,-0.28327578947368415,-5.126522105263158,-0.6883221052631578,-0.6892147368421053,-0.8934021052631579,-1.1117031578947367,-1.3463957894736842,-1.7229747368421053,-2.5241726315789474,-2.990494736842105,-0.6238905263157895,-0.4532842105263158,-0.8716568421052631,-1.0835073684210526,-1.6750315789473684,-1.9400105263157894,-0.43232631578947367,-2.568730526315789,-3.277602105263158,-1.2214610526315788,-1.7137852631578947,-1.5117347368421052,-0.73924,-4.521850526315789,-5.370621052631579,-5.07194947368421,-0.9578336842105263,-1.135397894736842,-1.4254926315789473,-1.635341052631579,-2.619061052631579,-2.7780231578947365,-3.9998884210526313,-4.53942947368421,-2.2334673684210524,-3.487456842105263,-3.9962884210526317,-5.445875789473685,-2.328755789473684,-0.7173094736842105,-3.4089789473684213,-3.4412926315789476,-3.8289115789473684,-4.221587368421052
0.359375,-0.9348505263157895,-0.9665852631578947,-2.0737705263157897,-1.9322547368421052,-0.7843894736842105,-0.5638126315789473,-0.30432,-0.8734294736842105,-0.48625052631578947,-1.8778652631578947,-1.7952547368421052,-0.4691094736842105,-0.22857684210526316,-0.9566,-0.9320189473684211,-2.1796042105263154,-1.9593726315789473,-0.2914926315789474,-5.394806315789474,-0.6256336842105263,-0.6265536842105263,-0.8399368421052632,-1.0479873684210526,-1.2600273684210528,-1.6304484210526315,-2.4501894736842105,-2.976117894736842,-0.5940884210526316,-0.4286189473684211,-0.8973368421052632,-1.0690715789473684,-1.8261642105263158,-1.9543873684210524,-0.3912042105263158,-2.6499684210526313,-3.3012505263157896,-1.6696842105263159,-1.709663157894737,-1.5857705263157895,-0.6652147368421052,-4.765452631578948,-5.48164,-5.201465263157894,-1.0297957894736842,-1.2124884210526317,-1.4933431578947367,-1.6856821052631579,-2.701296842105263,-2.8654021052631578,-4.126317894736842,-4.654578947368422,-2.3969221052631577,-3.5933557894736845,-4.832021052631579,-5.9433957894736835,-2.4480315789473686,-0.7563768421052631,-3.482987368421053,-3.548189473684211,-3.911117894736842,-4.282267368421053
0.36328125,-0.9605747368421054,-0.9881515789473685,-2.2012357894736843,-1.7441094736842104,-0.8162463157894736,-0.46307157894736845,-0.03294736842105264,-1.0574463157894736,-0.4410063157894737,-2.045425263157895,-1.8425536842105263,-0.46497263157894736,-0.2378378947368421,-0.9771368421052631,-0.9464084210526316,-2.376991578947368,-2.0354673684210525,-0.29765473684210525,-5.637425263157895,-0.6348778947368421,-0.6039221052631579,-0.8944463157894738,-0.9842378947368422,-1.371021052631579,-1.5523073684210527,-2.544726315789474,-3.004901052631579,-0.6084568421052632,-0.3978084210526316,-0.9847136842105263,-0.9930021052631579,-2.017385263157895,-1.9728757894736841,-0.40765684210526315,-2.8462694736842105,-3.2467663157894737,-2.3553200000000003,-1.7693052631578947,-1.7348273684210527,-0.649778947368421,-4.953574736842105,-5.590631578947368,-5.326911578947368,-1.0647515789473685,-1.2351515789473684,-1.5437284210526314,-1.7401684210526316,-2.69512,-2.9240189473684213,-4.2311810526315785,-4.773831578947369,-2.5243873684210527,-3.629332631578947,-4.340661052631579,-5.281402105263158,-2.5477578947368418,-0.771778947368421,-3.6341326315789475,-3.6499326315789475,-3.944018947368421,-4.28433052631579
0.3671875,-1.090098947368421,-1.072421052631579,-2.4726168421052632,-1.7657136842105263,-0.9478484210526316,-0.4774778947368421,-0.09052842105263158,-0.871381052631579,-0.4328063157894737,-2.2140294736842105,-1.8476905263157894,-0.46600421052631574,-0.20904421052631578,-0.9689473684210527,-0.8991115789473684,-2.3995894736842107,-2.0076947368421054,-0.2647747368421053,-5.829648421052632,-0.77876,-0.6049557894736842,-1.0547747368421054,-0.9862863157894737,-1.6331747368421052,-1.5225031578947368,-2.795581052631579,-3.1148863157894735,-0.7266926315789474,-0.4142484210526316,-1.1338,-0.9118231578947368,-2.2188652631578947,-1.988338947368421,-0.4518778947368421,-3.039578947368421,-3.2334084210526313,-2.765471578947368,-1.9296484210526315,-1.9321873684210527,-0.7176715789473684,-4.954591578947369,-5.600905263157895,-5.347446315789473,-1.0287705263157894,-1.242324210526316,-1.519054736842105,-1.740181052631579,-2.647844210526316,-2.8931452631578947,-4.275347368421053,-4.765576842105263,-2.551094736842105,-3.5800021052631577,-4.413644210526316,-5.629880000000001,-2.5518589473684212,-0.7214505263157895,-3.7523115789473684,-3.712646315789474,-3.948136842105263,-4.190766315789474
0.37109375,-1.3028652631578947,-1.2143073684210528,-2.840606315789474,-2.0134631578947366,-1.1153873684210525,-0.5514631578947369,-0.06893894736842106,-1.0502252631578948,-0.34232,-2.2767263157894737,-1.8086252631578947,-0.45265263157894736,-0.12577263157894739,-0.9525052631578947,-0.8271557894736842,-2.2875305263157895,-1.8134000000000001,-0.21338105263157897,-5.960193684210527,-0.9370905263157895,-0.6563452631578948,-1.268621052631579,-1.0171389473684211,-1.924101052631579,-1.6068105263157895,-3.0916147368421054,-3.253663157894737,-0.8654652631578947,-0.4317157894736842,-1.287978947368421,-0.8902021052631579,-2.2763936842105266,-1.9975915789473684,-0.518701052631579,-3.0446736842105264,-3.296098947368421,-2.7562336842105264,-2.1619915789473683,-2.1758294736842108,-0.8338168421052631,-4.788071578947368,-5.515593684210526,-5.262115789473684,-0.9506463157894737,-1.1795936842105263,-1.43988,-1.638381052631579,-2.576911578947368,-2.787290526315789,-4.219861052631579,-4.647355789473685,-2.453461052631579,-3.4278673684210528,-4.887543157894737,-5.345132631578948,-2.4583305263157893,-0.6433305263157895,-3.80989052631579,-3.737303157894737,-3.8833768421052635,-4.132164210526316
0.375,-1.499197894736842,-1.3942105263157896,-3.1120273684210527,-2.3896568421052633,-1.2726757894736844,-0.9369621052631579,-0.7011242105263158,-0.20422105263157894,-0.19635789473684212,-2.2314757894736843,-1.698635789473684,-0.4341452631578947,-0.05792210526315789,-0.9524778947368422,-0.7459557894736842,-1.5443284210526314,-2.4877599999999997,-0.1424336842105263,-6.0321452631578945,-1.0902442105263157,-0.7601873684210526,-1.4104842105263158,-1.1034842105263156,-2.076216842105263,-1.7291494736842106,-3.3074884210526316,-3.3728842105263155,-0.9435789473684211,-0.4440484210526316,-1.3363073684210527,-0.9498168421052632,-2.203431578947369,-1.9821705263157894,-0.6009326315789474,-2.9223557894736842,-3.482183157894737,-2.6791094736842105,-2.3829852631578947,-2.3526021052631583,-0.9376084210526315,-4.621547368421053,-5.362402105263158,-5.133642105263158,-0.8982294736842105,-1.072677894736842,-1.3956905263157895,-1.52636,-2.5460505263157893,-2.653642105263158,-4.1489242105263155,-4.534256842105263,-2.3064905263157898,-3.3034842105263156,-5.098248421052632,-6.508797894736842,-2.306162105263158,-0.571381052631579,-3.7430694736842107,-3.741442105263158,-3.810393684210526,-4.117751578947368
0.37890625,-1.5948315789473684,-1.4990294736842105,-3.1572715789473684,-2.62816,-1.3528315789473684,-0.44969263157894734,-0.1295621052631579,-0.826141052631579,-0.40606315789473685,-2.085515789473684,-1.6030442105263158,-0.41257473684210527,0.009930526315789468,-0.9678926315789473,-0.6822063157894737,-2.022298947368421,-1.7907957894736843,-0.11570315789473685,-6.083562105263158,-1.1406315789473682,-0.8527094736842105,-1.397101052631579,-1.2114084210526315,-2.022743157894737,-1.8658694736842105,-3.34244,-3.542534736842105,-0.9466505263157895,-0.4923642105263158,-1.2632947368421052,-1.0146084210526316,-1.9844863157894737,-1.9718968421052632,-0.6235536842105263,-2.8164673684210526,-3.634305263157895,-2.8076189473684208,-2.5330863157894736,-2.360837894736842,-1.0075263157894736,-4.5290063157894735,-5.224675789473684,-5.024684210526315,-0.8262442105263158,-0.9791410526315789,-1.3504547368421054,-1.4462000000000002,-2.5203621052631577,-2.569313684210526,-4.054343157894737,-4.493157894736842,-2.17692,-3.2428084210526316,-4.452717894736843,-5.38112,-2.1745915789473687,-0.5199705263157894,-3.5837305263157893,-3.7547936842105263,-3.728168421052632,-4.080738947368421
0.3828125,-1.5506294736842106,-1.5155115789473683,-2.9979305263157894,-2.6836694736842106,-1.3353368421052632,-0.42606947368421055,-0.1552736842105263,-0.6966421052631578,-0.35053473684210523,-1.9364610526315789,-1.5557578947368422,-0.3663031578947368,0.03561684210526316,-0.9134273684210527,-0.68116,-1.9215684210526316,-1.8051663157894735,-0.09104631578947367,-6.102071578947368,-1.1169852631578947,-0.9164336842105264,-1.2778484210526317,-1.300854736842105,-1.8428652631578948,-1.9305936842105265,-3.226265263157895,-3.677181052631579,-0.8767536842105264,-0.5427578947368421,-1.0916273684210527,-1.0885978947368422,-1.7562547368421053,-1.9554421052631579,-0.6533515789473684,-2.8442315789473684,-3.646637894736842,-3.0337705263157893,-2.588578947368421,-2.2333684210526314,-1.0188294736842105,-4.498185263157895,-5.105446315789473,-4.925995789473684,-0.7789915789473685,-0.9205368421052631,-1.3042105263157895,-1.4101726315789473,-2.4843873684210527,-2.5456800000000004,-3.9762315789473686,-4.519898947368421,-2.085461052631579,-3.2129852631578943,-4.293376842105263,-5.3369136842105265,-2.0789852631578944,-0.46961052631578953,-3.4521473684210524,-3.6951789473684213,-3.6336,-4.028362105263158
